File: SiO 2.xy
# Created by:        SpecsLab Prodigy, Version 4.50.2-r79252
#
# XY-Serializer Export Settings:
#   Comment Prefix:           #
#   Output meta data:         yes
#   Energy Axis:              Binding Energy
#   Count Rate:               Counts per Second
#   Separate Scan Data:       no
#   Separate Channel Data:    no
#   External Channel Data:    yes
#   Transmission Function:    no
#   ErrorBar:                 no
#   Operation Results:        yes
#   Time Zone Format:         UTC
#
# Group:             Spectrum Group 0
#
# Region:            C1s
# Acquisition Date:  10/25/19 16:55:32 UTC
# Analysis Method:   XPS
# Analyzer:          Phoibos
# Analyzer Lens:     MediumArea:1.5kV
# Analyzer Slit:     5:7x20\B:open
# Scan Mode:         FixedAnalyzerTransmission
# Curves/Scan:       1
# Values/Curve:      71
# Dwell Time:        0.1
# Excitation Energy: 1486.71
# Binding Energy:    289
# Pass Energy:       10
# Bias Voltage:      90
# Detector Voltage:  1900
# Eff. Workfunction: 4.395
# Source:            Focus
# Comment:
#
# Cycle: 0
# Number of Scans: 12
#
# Cycle: 0, Curve: 0
# Acquisition Date: 10/25/19 16:55:32 UTC
#
# ColumnLabels: energy counts/s
#
289  1046.69
288.9  1078.87
288.8  1068
288.7  1057.01
288.6  1046.42
288.5  1168.77
288.4  1133.43
288.3  1123.98
288.2  1097.22
288.1  1120.765
288  1082.48
287.9  1149.5
287.8  1148.23
287.7  1180.44
287.6  1121.39
287.5  1191.83
287.4  1187.94
287.3  1183.349
287.2  1215.78
287.1  1258.32
287  1309.75
286.9  1370.18
286.8  1439.63
286.7  1513.063
286.6  1568.81
286.5  1659.8
286.4  1665.952
286.3  1704.35
286.2  1718.93
286.1  1750.4
286  1724.84
285.9  1715.11
285.8  1648.6
285.7  1574.58
285.6  1493.66
285.5  1447.36
285.4  1371.39
285.3  1332.37
285.2  1189.55
285.1  1171.63
285  1171.17
284.9  1101.65
284.8  1100.2
284.7  1054.67
284.6  972.284
284.5  988.774
284.4  1034.94
284.3  1040.39
284.2  1016.914
284.1  1042.71
284  1040.21
283.9  1013.17
283.8  1014.86
283.7  1019.01
283.6  1070.64
283.5  1044.8
283.4  1037.17
283.3  1050.404
283.2  1034.86
283.1  1045.08
283  1028.08
282.9  997.997
282.8  1011.18
282.7  1029.37
282.6  996.727
282.5  1029.18
282.4  1078.368
282.3  1081.56
282.2  1045.39
282.1  1039.34
282  1070.86