File: SiO 21(Si).xy
# Created by:        SpecsLab Prodigy, Version 4.50.2-r79252
#
# XY-Serializer Export Settings:
#   Comment Prefix:           #
#   Output meta data:         yes
#   Energy Axis:              Binding Energy
#   Count Rate:               Counts per Second
#   Separate Scan Data:       no
#   Separate Channel Data:    no
#   External Channel Data:    yes
#   Transmission Function:    no
#   ErrorBar:                 no
#   Operation Results:        yes
#   Time Zone Format:         UTC
#
# Group:             Spectrum Group 45
#
# Region:            Si2p
# Acquisition Date:  10/25/19 19:18:37 UTC
# Analysis Method:   XPS
# Analyzer:          Phoibos
# Analyzer Lens:     MediumArea:1.5kV
# Analyzer Slit:     5:7x20\B:open
# Scan Mode:         FixedAnalyzerTransmission
# Curves/Scan:       1
# Values/Curve:      151
# Dwell Time:        0.1
# Excitation Energy: 1486.71
# Binding Energy:    110
# Pass Energy:       10
# Bias Voltage:      90
# Detector Voltage:  1900
# Eff. Workfunction: 4.395
# Source:            Focus
# Comment:
#
# Cycle: 0
# Number of Scans: 12
#
# Cycle: 0, Curve: 0
# Acquisition Date: 10/25/19 19:18:37 UTC
#
# ColumnLabels: energy counts/s
#
110  94.3971
109.9  90.64785
109.8  99.07172
109.7  91.5071
109.6  87.9865
109.5  95.9772
109.4  92.1495
109.3  93.2687
109.2  96.0993
109.1  96.573
109  100.697
108.9  104.542
108.8  95.0983
108.7  82.9924
108.6  89.3709
108.5  99.4796
108.4  85.8255
108.3  79.8247
108.2  85.8215
108.1  83.7478
108  85.6768
107.9  96.4433
107.8  100.7112
107.7  85.4863
107.6  91.8251
107.5  107.134
107.4  107.552
107.3  109.133
107.2  110.52
107.1  126.7823
107  138.358
106.9  146.436
106.8  170.374
106.7  182.247
106.6  231.4606
106.5  306.199
106.4  369.041
106.3  434.099
106.2  539.729
106.1  661.092
106  844.951
105.9  1023.47
105.8  1223.51
105.7  1462.17
105.6  1671.26
105.5  1843.28
105.4  2062.15
105.3  2213.46
105.2  2467.46
105.1  2570.94
105  2529.24
104.9  2577.72
104.8  2610.42
104.7  2531.45
104.6  2399.477
104.5  2188.05
104.4  1963.925
104.3  1685.38
104.2  1419.49
104.1  1185.18
104  914.318
103.9  710.407
103.8  579.204
103.7  452.309
103.6  396.282
103.5  294.711
103.4  260.813
103.3  225.529
103.2  189.919
103.1  186.484
103  165.729
102.9  166.086
102.8  153.317
102.7  140.816
102.6  121.834
102.5  118.642
102.4  114.665
102.3  103.388
102.2  100.798
102.1  91.82688
102  110.39
101.9  90.5995
101.8  91.0657
101.7  116.201
101.6  95.5356
101.5  105.2861
101.4  110.901
101.3  108.181
101.2  129.067
101.1  137.171
101  159.8061
100.9  175.581
100.8  245.875
100.7  330.943
100.6  389.438
100.5  403.424
100.4  424.371
100.3  440.3
100.2  445.269
100.1  525.6128
100  566.137
99.9  659.943
99.8  560.919
99.7  452.69
99.6  301.375
99.5  174.377
99.4  115.178
99.3  88.5974
99.2  77.9277
99.1  76.1851
99  75.6857
98.9  64.8442
98.8  71.8482
98.7  76.5593
98.6  76.6297
98.5  72.0377
98.4  74.3748
98.3  78.148
98.2  53.8139
98.1  62.8544
98  61.327
97.9  68.64581
97.8  72.4131
97.7  63.3105
97.6  65.83
97.5  59.4121
97.4  61.4449
97.3  63.2258
97.2  57.6346
97.1  66.3619
97  54.4063
96.9  62.1037
96.8  64.9553
96.7  64.63533
96.6  64.0616
96.5  75.5014
96.4  49.2994
96.3  60.0763
96.2  62.1759
96.1  66.84895
96  78.1907
95.9  65.23062
95.8  59.6402
95.7  63.9651
95.6  68.326
95.5  55.1164
95.4  60.2035
95.3  59.49
95.2  63.18346
95.1  62.8508
95  62.7689