File: SiO 8.xy
# Created by:        SpecsLab Prodigy, Version 4.50.2-r79252
#
# XY-Serializer Export Settings:
#   Comment Prefix:           #
#   Output meta data:         yes
#   Energy Axis:              Binding Energy
#   Count Rate:               Counts per Second
#   Separate Scan Data:       no
#   Separate Channel Data:    no
#   External Channel Data:    yes
#   Transmission Function:    no
#   ErrorBar:                 no
#   Operation Results:        yes
#   Time Zone Format:         UTC
#
# Group:             Spectrum Group 5
#
# Region:            O1s
# Acquisition Date:  10/25/19 17:37:58 UTC
# Analysis Method:   XPS
# Analyzer:          Phoibos
# Analyzer Lens:     MediumArea:1.5kV
# Analyzer Slit:     5:7x20\B:open
# Scan Mode:         FixedAnalyzerTransmission
# Curves/Scan:       1
# Values/Curve:      491
# Dwell Time:        0.1
# Excitation Energy: 1486.71
# Binding Energy:    570
# Pass Energy:       10
# Bias Voltage:      90
# Detector Voltage:  1900
# Eff. Workfunction: 4.395
# Source:            Focus
# Comment:
#
# Cycle: 0
# Number of Scans: 12
#
# Cycle: 0, Curve: 0
# Acquisition Date: 10/25/19 17:37:58 UTC
#
# ColumnLabels: energy counts/s
#
570  2193.96
569.8  2270.79
569.6  2227.64
569.4  2138.37
569.2  2239.83
569  2145.46
568.8  2269.42
568.6  2221.68
568.4  2175.67
568.2  2162.72
568  2149.31
567.8  2236.233
567.6  2219.09
567.4  2185.44
567.2  2194.05
567  2224.721
566.8  2259.45
566.6  2293.14
566.4  2223.665
566.2  2303.98
566  2304.74
565.8  2289.63
565.6  2303.09
565.4  2306.42
565.2  2388.99
565  2351.56
564.8  2379.87
564.6  2428.8
564.4  2379.462
564.2  2458.81
564  2437.38
563.8  2548.32
563.6  2530.86
563.4  2435.61
563.2  2554.34
563  2486.83
562.8  2537.67
562.6  2605.93
562.4  2589.48
562.2  2628.1
562  2633.35
561.8  2598.76
561.6  2671.95
561.4  2573.11
561.2  2718.88
561  2657.78
560.8  2785.54
560.6  2595.12
560.4  2743.75
560.2  2792.99
560  2759.84
559.8  2711.9
559.6  2787.74
559.4  2872.39
559.2  2762.31
559  2850.2
558.8  2819.81
558.6  2786.145
558.4  2838.97
558.2  2802.12
558  2862.21
557.8  2959.142
557.6  2866.23
557.4  2967.41
557.2  2903.98
557  3039.27
556.8  2969.66
556.6  3056.767
556.4  2975.43
556.2  2965.5
556  2932.19
555.8  2867.8
555.6  2865.48
555.4  2833.77
555.2  2760.18
555  2725.19
554.8  2709.91
554.6  2793.71
554.4  2618.64
554.2  2594.46
554  2564.14
553.8  2506.07
553.6  2472.66
553.4  2380.23
553.2  2366.82
553  2353.43
552.8  2287.303
552.6  2253.23
552.4  2273.85
552.2  2205.57
552  2253.99
551.8  2266.77
551.6  2205.95
551.4  2121.28
551.2  2165.081
551  2161.91
550.8  2087.44
550.6  2097
550.4  2161.14
550.2  2107.79
550  2171.69
549.8  2103.336
549.6  2075.28
549.4  2105.32
549.2  2097.98
549  2043.23
548.8  2000.95
548.6  1988.98
548.4  2025
548.2  1983.78
548  1930.94
547.8  1907.21
547.6  1887.241
547.4  1805.24
547.2  1862.775
547  1795.72
546.8  1782.61
546.6  1802.5
546.4  1824.31
546.2  1777.13
546  1831
545.8  1779.52
545.6  1649.19
545.4  1649.18
545.2  1584.99
545  1529
544.8  1494.34
544.6  1395.66
544.4  1404.93
544.2  1360.67
544  1231.97
543.8  1258.47
543.6  1197.55
543.4  1167.061
543.2  1109.49
543  1122.2
542.8  1096.03
542.6  1084.28
542.4  1082.35
542.2  1088.45
542  1070.842
541.8  1031.03
541.6  1070.85
541.4  972.554
541.2  1022.474
541  1049.26
540.8  1059.997
540.6  1033.67
540.4  1047.58
540.2  1056.16
540  1017.34
539.8  1013.66
539.6  1033.53
539.4  1059.539
539.2  1052.48
539  1053.81
538.8  1068.43
538.6  1055.34
538.4  1071.3
538.2  1048.92
538  1037.755
537.8  1101.07
537.6  1089.83
537.4  1107.94
537.2  1211.01
537  1239.008
536.8  1279.64
536.6  1404.95
536.4  1640.6
536.2  1930.659
536  2626.83
535.8  3453.95
535.6  4991.791
535.4  7262.04
535.2  10329.83
535  14584.841
534.8  19093.113
534.6  23461.564
534.4  25914.364
534.2  25854.788
534  22971.007
533.8  18556.335
533.6  13136.008
533.4  8709.85
533.2  5637.36
533  3692.18
532.8  2708.168
532.6  2091.81
532.4  1831.42
532.2  1536.27
532  1445.09
531.8  1307.04
531.6  1220.12
531.4  1171.53
531.2  1219.36
531  1125.13
530.8  1096.93
530.6  1047.96
530.4  1006.06
530.2  1019.85
530  1044.458
529.8  1016.77
529.6  1014.6
529.4  980.383
529.2  947.31
529  961.424
528.8  1001.05
528.6  986.358
528.4  968.162
528.2  958.553
528  924.6314
527.8  972.493
527.6  963.255
527.4  946.017
527.2  925.525
527  943.853
526.8  938.27
526.6  941.6169
526.4  918.121
526.2  933.2298
526  898.48
525.8  925.171
525.6  950.47
525.4  954.071
525.2  910.815
525  917.594
524.8  926.2308
524.6  953.177
524.4  953.495
524.2  918.2107
524  902.571
523.8  968.1109
523.6  928.548
523.4  942.7
523.2  969.507
523  888.922
522.8  924.967
522.6  908.052
522.4  929.035
522.2  949.045
522  907.775
521.8  889.311
521.6  925.14
521.4  969.102
521.2  955.9755
521  966.892