File: SiO 19.xy
# Created by:        SpecsLab Prodigy, Version 4.50.2-r79252
#
# XY-Serializer Export Settings:
#   Comment Prefix:           #
#   Output meta data:         yes
#   Energy Axis:              Binding Energy
#   Count Rate:               Counts per Second
#   Separate Scan Data:       no
#   Separate Channel Data:    no
#   External Channel Data:    yes
#   Transmission Function:    no
#   ErrorBar:                 no
#   Operation Results:        yes
#   Time Zone Format:         UTC
#
# Group:             Spectrum Group 45
#
# Region:            C1s
# Acquisition Date:  10/25/19 19:03:21 UTC
# Analysis Method:   XPS
# Analyzer:          Phoibos
# Analyzer Lens:     MediumArea:1.5kV
# Analyzer Slit:     5:7x20\B:open
# Scan Mode:         FixedAnalyzerTransmission
# Curves/Scan:       1
# Values/Curve:      71
# Dwell Time:        0.1
# Excitation Energy: 1486.71
# Binding Energy:    289
# Pass Energy:       10
# Bias Voltage:      90
# Detector Voltage:  1900
# Eff. Workfunction: 4.395
# Source:            Focus
# Comment:
#
# Cycle: 0
# Number of Scans: 12
#
# Cycle: 0, Curve: 0
# Acquisition Date: 10/25/19 19:03:21 UTC
#
# ColumnLabels: energy counts/s
#
289  568.671
288.9  581.563
288.8  578.443
288.7  608.09
288.6  571.821
288.5  588.275
288.4  616.261
288.3  584.1728
288.2  634.8526
288.1  599.782
288  581.988
287.9  598.357
287.8  618.206
287.7  636.135
287.6  618.893
287.5  597.325
287.4  638.845
287.3  679.35
287.2  655.4
287.1  664.205
287  731.671
286.9  766.929
286.8  793.391
286.7  840.542
286.6  810.607
286.5  879.332
286.4  959.794
286.3  965.706
286.2  1002.916
286.1  1028.22
286  972.505
285.9  977.55
285.8  973.606
285.7  924.093
285.6  883.7894
285.5  826.436
285.4  771.886
285.3  726.7803
285.2  709.708
285.1  621.289
285  623.041
284.9  583.651
284.8  580.283
284.7  603.157
284.6  562.1017
284.5  562.289
284.4  551.096
284.3  561.692
284.2  595.734
284.1  578.014
284  567.665
283.9  549.858
283.8  566.001
283.7  552.249
283.6  532.561
283.5  534.449
283.4  555.911
283.3  526.845
283.2  546.462
283.1  553.656
283  556.053
282.9  543.802
282.8  539.757
282.7  546.09
282.6  577.225
282.5  592.835
282.4  558.078
282.3  556.12
282.2  549.393
282.1  578.414
282  550.462