File: SiO 17.xy
# Created by:        SpecsLab Prodigy, Version 4.50.2-r79252
#
# XY-Serializer Export Settings:
#   Comment Prefix:           #
#   Output meta data:         yes
#   Energy Axis:              Binding Energy
#   Count Rate:               Counts per Second
#   Separate Scan Data:       no
#   Separate Channel Data:    no
#   External Channel Data:    yes
#   Transmission Function:    no
#   ErrorBar:                 no
#   Operation Results:        yes
#   Time Zone Format:         UTC
#
# Group:             Spectrum Group 35
#
# Region:            O1s
# Acquisition Date:  10/25/19 18:48:29 UTC
# Analysis Method:   XPS
# Analyzer:          Phoibos
# Analyzer Lens:     MediumArea:1.5kV
# Analyzer Slit:     5:7x20\B:open
# Scan Mode:         FixedAnalyzerTransmission
# Curves/Scan:       1
# Values/Curve:      491
# Dwell Time:        0.1
# Excitation Energy: 1486.71
# Binding Energy:    570
# Pass Energy:       10
# Bias Voltage:      90
# Detector Voltage:  1900
# Eff. Workfunction: 4.395
# Source:            Focus
# Comment:
#
# Cycle: 0
# Number of Scans: 12
#
# Cycle: 0, Curve: 0
# Acquisition Date: 10/25/19 18:48:29 UTC
#
# ColumnLabels: energy counts/s
#
570  1463.34
569.8  1402.96
569.6  1482.11
569.4  1470.61
569.2  1439.14
569  1405.76
568.8  1436.41
568.6  1392.32
568.4  1417.696
568.2  1408.72
568  1445.92
567.8  1414.118
567.6  1360.42
567.4  1482.6
567.2  1412.07
567  1477.43
566.8  1455.78
566.6  1476.73
566.4  1454.8
566.2  1484.45
566  1527.31
565.8  1494.03
565.6  1509.33
565.4  1512.78
565.2  1594.96
565  1581.62
564.8  1589.77
564.6  1549.28
564.4  1542.31
564.2  1591.73
564  1592.06
563.8  1591.78
563.6  1592.22
563.4  1603.3
563.2  1676.12
563  1676.85
562.8  1701.56
562.6  1644.21
562.4  1718.12
562.2  1700.44
562  1708.66
561.8  1767.33
561.6  1740.6
561.4  1763.41
561.2  1787.16
561  1768.903
560.8  1807.04
560.6  1802.64
560.4  1890.593
560.2  1760.043
560  1798.49
559.8  1850.316
559.6  1878.69
559.4  1854.93
559.2  1835
559  1826.65
558.8  1816.31
558.6  1798.52
558.4  1845.86
558.2  1875.91
558  1896.27
557.8  1922.46
557.6  1865.75
557.4  1935.11
557.2  1947.815
557  1979.78
556.8  1961.19
556.6  1961.06
556.4  2045.7
556.2  1999.68
556  1995.42
555.8  1954.29
555.6  1908.84
555.4  1884.35
555.2  1834.87
555  1778.41
554.8  1809.65
554.6  1809.89
554.4  1707.23
554.2  1756.63
554  1737.68
553.8  1681.25
553.6  1639.18
553.4  1645.59
553.2  1587.3
553  1581.92
552.8  1528.45
552.6  1546.71
552.4  1515.51
552.2  1509.067
552  1460.7
551.8  1421.02
551.6  1453.59
551.4  1391.25
551.2  1434.73
551  1456.58
550.8  1427.91
550.6  1426.03
550.4  1423.36
550.2  1342.911
550  1360.14
549.8  1375.69
549.6  1328.42
549.4  1347.74
549.2  1369.75
549  1379.26
548.8  1336.831
548.6  1317.97
548.4  1260.2
548.2  1265.223
548  1277.65
547.8  1233.48
547.6  1259.17
547.4  1191.79
547.2  1250.11
547  1232.54
546.8  1169.56
546.6  1248.412
546.4  1131.038
546.2  1157.4
546  1122.89
545.8  1143.37
545.6  1076.97
545.4  1094.94
545.2  1063.53
545  1021.2
544.8  992.589
544.6  994.973
544.4  930.573
544.2  890.578
544  864.5165
543.8  819.476
543.6  786.89
543.4  750.2706
543.2  739.469
543  743.457
542.8  708.529
542.6  672.158
542.4  687.344
542.2  695.414
542  685.994
541.8  718.617
541.6  688.366
541.4  666.413
541.2  665.685
541  704.887
540.8  663.712
540.6  696.832
540.4  675.117
540.2  714.209
540  652.644
539.8  666.744
539.6  683.047
539.4  671.249
539.2  672.969
539  704.676
538.8  657.965
538.6  674.205
538.4  657.372
538.2  668.477
538  654.41
537.8  673.043
537.6  699.036
537.4  716.1418
537.2  794.292
537  772.9614
536.8  794.687
536.6  851.402
536.4  904.262
536.2  1068.17
536  1267.457
535.8  1701.22
535.6  2382.69
535.4  3494.17
535.2  5492.47
535  8030.66
534.8  11241.741
534.6  14590.912
534.4  17126.081
534.2  17880.266
534  16648.317
533.8  13831.99
533.6  9988.53
533.4  6769.32
533.2  4324.77
533  2700.17
532.8  1985.79
532.6  1473.77
532.4  1229.48
532.2  1043.71
532  909.285
531.8  917.858
531.6  845.856
531.4  736.4912
531.2  753.666
531  730.4485
530.8  737.56
530.6  710.523
530.4  683.327
530.2  725.646
530  672.578
529.8  675.789
529.6  637.815
529.4  610.314
529.2  626.987
529  700.335
528.8  611.6176
528.6  629.832
528.4  610.633
528.2  590.355
528  612.088
527.8  617.185
527.6  596.913
527.4  615.663
527.2  609.065
527  594.9221
526.8  596.964
526.6  581.226
526.4  599.339
526.2  632.127
526  578.167
525.8  639.624
525.6  597.8122
525.4  625.16
525.2  603.513
525  594.577
524.8  613.027
524.6  609.202
524.4  623.052
524.2  600.971
524  614.365
523.8  607.002
523.6  605.254
523.4  576.502
523.2  597.045
523  613.661
522.8  578.396
522.6  648.895
522.4  609.812
522.2  591.498
522  620.768
521.8  623.291
521.6  559.302
521.4  611.975
521.2  580.561
521  620.09