File: SiO 15(Si).xy
# Created by:        SpecsLab Prodigy, Version 4.50.2-r79252
#
# XY-Serializer Export Settings:
#   Comment Prefix:           #
#   Output meta data:         yes
#   Energy Axis:              Binding Energy
#   Count Rate:               Counts per Second
#   Separate Scan Data:       no
#   Separate Channel Data:    no
#   External Channel Data:    yes
#   Transmission Function:    no
#   ErrorBar:                 no
#   Operation Results:        yes
#   Time Zone Format:         UTC
#
# Group:             Spectrum Group 25
#
# Region:            Si2p
# Acquisition Date:  10/25/19 18:26:40 UTC
# Analysis Method:   XPS
# Analyzer:          Phoibos
# Analyzer Lens:     MediumArea:1.5kV
# Analyzer Slit:     5:7x20\B:open
# Scan Mode:         FixedAnalyzerTransmission
# Curves/Scan:       1
# Values/Curve:      151
# Dwell Time:        0.1
# Excitation Energy: 1486.71
# Binding Energy:    110
# Pass Energy:       10
# Bias Voltage:      90
# Detector Voltage:  1900
# Eff. Workfunction: 4.395
# Source:            Focus
# Comment:
#
# Cycle: 0
# Number of Scans: 12
#
# Cycle: 0, Curve: 0
# Acquisition Date: 10/25/19 18:26:40 UTC
#
# ColumnLabels: energy counts/s
#
110  126.402
109.9  136.69
109.8  128.384
109.7  116.02
109.6  116.529
109.5  132.827
109.4  126.981
109.3  126.12
109.2  116.117
109.1  144.029
109  131.445
108.9  118.183
108.8  126.024
108.7  121.829
108.6  124.52
108.5  129.3844
108.4  117.787
108.3  130.463
108.2  135.998
108.1  127.039
108  116.213
107.9  122.861
107.8  137.364
107.7  137.314
107.6  141.92
107.5  147.87
107.4  148.824
107.3  140.539
107.2  162.8182
107.1  170.783
107  161.728
106.9  167.802
106.8  203.476
106.7  240.06
106.6  284.102
106.5  336.841
106.4  394.484
106.3  498.918
106.2  617.702
106.1  728.132
106  925.339
105.9  1096.19
105.8  1297.84
105.7  1525.37
105.6  1789.72
105.5  2067.52
105.4  2355.01
105.3  2592.76
105.2  2742.11
105.1  3006.52
105  3135.9
104.9  3217.18
104.8  3206.17
104.7  3158.12
104.6  2943.51
104.5  2771.27
104.4  2577.28
104.3  2240.51
104.2  1972.55
104.1  1666.28
104  1378.9
103.9  1108.84
103.8  856.695
103.7  703.7195
103.6  553.241
103.5  450.024
103.4  348.879
103.3  313.341
103.2  287.197
103.1  252.222
103  231.671
102.9  204.685
102.8  201.526
102.7  186.343
102.6  188.916
102.5  170.086
102.4  163.741
102.3  147.331
102.2  135.512
102.1  161.738
102  144.832
101.9  136.694
101.8  120.058
101.7  127.9016
101.6  145.618
101.5  143.431
101.4  158.784
101.3  166.112
101.2  155.22
101.1  177.346
101  235.623
100.9  265.9074
100.8  378.1172
100.7  475.1913
100.6  665.983
100.5  797.125
100.4  834.588
100.3  885.094
100.2  867.741
100.1  917.758
100  1107.87
99.9  1244.23
99.8  1304.39
99.7  1122.53
99.6  775.4672
99.5  473.684
99.4  255.538
99.3  148.031
99.2  120.65
99.1  107.436
99  89.40857
98.9  84.6751
98.8  95.6489
98.7  88.8496
98.6  84.6751
98.5  90.308
98.4  85.361
98.3  78.2868
98.2  95.1484
98.1  84.8854
98  66.1319
97.9  72.7672
97.8  78.3533
97.7  82.2497
97.6  71.175
97.5  63.6644
97.4  83.2971
97.3  86.8555
97.2  77.8473
97.1  74.9208
97  74.2443
96.9  87.9251
96.8  79.8637
96.7  80.154
96.6  77.4398
96.5  75.0686
96.4  76.8366
96.3  68.075
96.2  65.7026
96.1  73.5286
96  88.7207
95.9  78.60147
95.8  79.832
95.7  96.4254
95.6  90.0164
95.5  82.0794
95.4  72.8407
95.3  83.82791
95.2  77.6761
95.1  67.3254
95  74.2191