File: SiO 24(Si).xy
# Created by:        SpecsLab Prodigy, Version 4.50.2-r79252
#
# XY-Serializer Export Settings:
#   Comment Prefix:           #
#   Output meta data:         yes
#   Energy Axis:              Binding Energy
#   Count Rate:               Counts per Second
#   Separate Scan Data:       no
#   Separate Channel Data:    no
#   External Channel Data:    yes
#   Transmission Function:    no
#   ErrorBar:                 no
#   Operation Results:        yes
#   Time Zone Format:         UTC
#
# Group:             Spectrum Group 55
#
# Region:            Si2p
# Acquisition Date:  10/25/19 19:53:36 UTC
# Analysis Method:   XPS
# Analyzer:          Phoibos
# Analyzer Lens:     MediumArea:1.5kV
# Analyzer Slit:     5:7x20\B:open
# Scan Mode:         FixedAnalyzerTransmission
# Curves/Scan:       1
# Values/Curve:      151
# Dwell Time:        0.1
# Excitation Energy: 1486.71
# Binding Energy:    110
# Pass Energy:       10
# Bias Voltage:      90
# Detector Voltage:  1900
# Eff. Workfunction: 4.395
# Source:            Focus
# Comment:
#
# Cycle: 0
# Number of Scans: 12
#
# Cycle: 0, Curve: 0
# Acquisition Date: 10/25/19 19:53:36 UTC
#
# ColumnLabels: energy counts/s
#
110  78.48925
109.9  70.8577
109.8  58.305
109.7  78.7499
109.6  70.3195
109.5  76.6218
109.4  70.9672
109.3  89.2787
109.2  80.1305
109.1  66.4401
109  61.4052
108.9  79.14505
108.8  76.1308
108.7  75.8255
108.6  68.7875
108.5  81.2129
108.4  73.9668
108.3  71.80234
108.2  78.3126
108.1  68.1291
108  73.20728
107.9  66.4506
107.8  70.7282
107.7  74.9579
107.6  77.9812
107.5  89.095
107.4  91.8634
107.3  78.4776
107.2  81.9944
107.1  101.332
107  92.2425
106.9  103.761
106.8  127.826
106.7  171.752
106.6  189.595
106.5  233.49
106.4  280.164
106.3  380.497
106.2  426.585
106.1  559.845
106  669.816
105.9  797.493
105.8  1009.84
105.7  1194.97
105.6  1387.784
105.5  1608.53
105.4  1721.4
105.3  1935.04
105.2  2064.58
105.1  2140.35
105  2154.67
104.9  2202.14
104.8  2029.54
104.7  2001.95
104.6  1913.32
104.5  1676.48
104.4  1500.06
104.3  1249.34
104.2  1068.07
104.1  851.9438
104  677.012
103.9  524.044
103.8  445.932
103.7  348.459
103.6  305.016
103.5  236.889
103.4  216.377
103.3  174.333
103.2  164.85
103.1  146.717
103  138.71
102.9  123.112
102.8  105.154
102.7  110.966
102.6  101.5223
102.5  96.2512
102.4  90.2665
102.3  83.4016
102.2  82.69966
102.1  75.1529
102  81.5073
101.9  66.87604
101.8  73.6794
101.7  82.8927
101.6  76.7793
101.5  89.6022
101.4  73.7994
101.3  75.1093
101.2  94.5256
101.1  95.2176
101  98.8905
100.9  113.18
100.8  140.732
100.7  198.662
100.6  224.75
100.5  262.6063
100.4  257.158
100.3  230.017
100.2  255.714
100.1  276.6006
100  336.336
99.9  334.048
99.8  283.255
99.7  234.377
99.6  165.393
99.5  104.5854
99.4  59.9379
99.3  53.24484
99.2  68.7711
99.1  61.7196
99  66.9371
98.9  54.3459
98.8  67.8888
98.7  57.3723
98.6  51.5002
98.5  53.22946
98.4  50.7915
98.3  56.5952
98.2  65.2355
98.1  56.50285
98  63.8609
97.9  61.4989
97.8  49.4994
97.7  57.9963
97.6  55.1051
97.5  58.62565
97.4  64.1866
97.3  61.9442
97.2  53.2578
97.1  56.4257
97  53.08939
96.9  54.6706
96.8  54.0682
96.7  66.8419
96.6  65.0505
96.5  67.35
96.4  56.634
96.3  54.5875
96.2  61.4224
96.1  59.966
96  61.5301
95.9  53.85092
95.8  62.4483
95.7  61.5392
95.6  57.5105
95.5  57.8682
95.4  53.7051
95.3  51.5765
95.2  51.1631
95.1  55.4486
95  60.1008