File: SiO 22(C).xy
# Created by:        SpecsLab Prodigy, Version 4.50.2-r79252
#
# XY-Serializer Export Settings:
#   Comment Prefix:           #
#   Output meta data:         yes
#   Energy Axis:              Binding Energy
#   Count Rate:               Counts per Second
#   Separate Scan Data:       no
#   Separate Channel Data:    no
#   External Channel Data:    yes
#   Transmission Function:    no
#   ErrorBar:                 no
#   Operation Results:        yes
#   Time Zone Format:         UTC
#
# Group:             Spectrum Group 55
#
# Region:            C1s
# Acquisition Date:  10/25/19 19:38:18 UTC
# Analysis Method:   XPS
# Analyzer:          Phoibos
# Analyzer Lens:     MediumArea:1.5kV
# Analyzer Slit:     5:7x20\B:open
# Scan Mode:         FixedAnalyzerTransmission
# Curves/Scan:       1
# Values/Curve:      71
# Dwell Time:        0.1
# Excitation Energy: 1486.71
# Binding Energy:    289
# Pass Energy:       10
# Bias Voltage:      90
# Detector Voltage:  1900
# Eff. Workfunction: 4.395
# Source:            Focus
# Comment:
#
# Cycle: 0
# Number of Scans: 12
#
# Cycle: 0, Curve: 0
# Acquisition Date: 10/25/19 19:38:18 UTC
#
# ColumnLabels: energy counts/s
#
289  448.661
288.9  441.562
288.8  448.126
288.7  448.254
288.6  414.249
288.5  420.565
288.4  439.539
288.3  417.13
288.2  445.355
288.1  450.42
288  438.018
287.9  435.3308
287.8  444.39
287.7  459.054
287.6  466.634
287.5  488.444
287.4  500.856
287.3  507.614
287.2  492.551
287.1  530.433
287  566.05
286.9  577.911
286.8  640.686
286.7  684.525
286.6  715.313
286.5  741.131
286.4  780.01
286.3  790.598
286.2  797.7758
286.1  785.02
286  810.218
285.9  754.762
285.8  777.284
285.7  738.102
285.6  664.46
285.5  619.692
285.4  603.894
285.3  601.834
285.2  521.523
285.1  521.985
285  509.235
284.9  484.541
284.8  455.0161
284.7  463.849
284.6  419.9802
284.5  404.523
284.4  447.369
284.3  419.854
284.2  434.758
284.1  407.979
284  420.8654
283.9  424.408
283.8  394.098
283.7  402.356
283.6  418.6153
283.5  439.741
283.4  403.104
283.3  414.899
283.2  406.2547
283.1  410.729
283  410.443
282.9  433.559
282.8  426.805
282.7  408.095
282.6  410.008
282.5  410.483
282.4  401.036
282.3  401.8568
282.2  427.114
282.1  401.03
282  402.268