File: SiO 1.xy
# Created by:        SpecsLab Prodigy, Version 4.50.2-r79252
#
# XY-Serializer Export Settings:
#   Comment Prefix:           #
#   Output meta data:         yes
#   Energy Axis:              Binding Energy
#   Count Rate:               Counts per Second
#   Separate Scan Data:       no
#   Separate Channel Data:    no
#   External Channel Data:    yes
#   Transmission Function:    no
#   ErrorBar:                 no
#   Operation Results:        yes
#   Time Zone Format:         UTC
#
# Group:             Spectrum Group 0
#
# Region:            Survey
# Acquisition Date:  10/25/19 16:37:31 UTC
# Analysis Method:   XPS
# Analyzer:          Phoibos
# Analyzer Lens:     MediumArea:1.5kV
# Analyzer Slit:     5:7x20\B:open
# Scan Mode:         FixedAnalyzerTransmission
# Curves/Scan:       1
# Values/Curve:      1201
# Dwell Time:        0.1
# Excitation Energy: 1486.71
# Binding Energy:    1200
# Pass Energy:       50
# Bias Voltage:      90
# Detector Voltage:  1900
# Eff. Workfunction: 4.395
# Source:            Focus
# Comment:
#
# Cycle: 0
# Number of Scans: 1
#
# Cycle: 0, Curve: 0
# Acquisition Date: 10/25/19 16:37:31 UTC
#
# ColumnLabels: energy counts/s
#
1200  18360.107
1195  19253.325
1190  18496.682
1185  18716.738
1180  18927.509
1175  18256.031
1170  18705.269
1165  19198.063
1160  18650.022
1155  19794.157
1150  19027.902
1145  18297.569
1140  18801.509
1135  18848.676
1130  19394.174
1125  19226.371
1120  19672.229
1115  19747.197
1110  20812.509
1105  20374.267
1100  20248.7
1095  20018.662
1090  20542.622
1085  20780.166
1080  21089.047
1075  20882.062
1070  21320.962
1065  21997.001
1060  22430.163
1055  22708.688
1050  23519.753
1045  23111.535
1040  23383.362
1035  24291.838
1030  24886.284
1025  25374.741
1020  26639.581
1015  25360.977
1010  26206.818
1005  30166.395
1000  27144.554
995  24538.368
990  25019.907
985  34219.34
980  38480.534
975  20662.843
970  13161.155
965  11545.793
960  10819.268
955  10724.726
950  11011.147
945  10958.412
940  10887.66
935  11439.826
930  11345.263
925  11727.445
920  11532.319
915  11116.715
910  11621.827
905  12271.448
900  12127.234
895  12186.38
890  12422.083
885  12786.958
880  12719.116
875  13669.177
870  12225.653
865  13035.657
860  13277.183
855  13519.031
850  13401.766
845  13651.124
840  14085.971
835  13770.807
830  14145.639
825  14498.722
820  13846.843
815  14307.956
810  14916.176
805  15057.344
800  14972.411
795  14851.596
790  15120.767
785  15514.828
780  15754.077
775  16115.765
770  16515.437
765  16508.428
760  16299.643
755  16500.752
750  16548.454
745  17497.351
740  17146.49
735  16751.183
730  17987.293
725  18177.348
720  18575.563
715  18664.723
710  19947.773
705  18795.932
700  19257.9
695  19754.027
690  20682.55
685  20403.106
680  19971.7
675  20922.821
670  20794.693
665  21464.407
660  22079.521
655  22426.899
650  22442.839
645  22833.607
640  23857.561
635  24407.6
630  24255.849
625  24493.609
620  24972.87
615  25687.609
610  26497.698
605  25982.106
600  27252.594
595  27332.151
590  28934.603
585  29503.8
580  30135.146
575  29947.416
570  29442.989
565  31162.805
560  36583.453
555  36895.795
550  28112.605
545  20556.87
540  14077.08
535  172313.55
530  14005.41
525  12394.436
520  13137.11
515  12361.36
510  12819.807
505  13036.276
500  13323.817
495  13746.483
490  13140.154
485  13175.712
480  13157.222
475  13393.117
470  13047.284
465  12986.94
460  14294.579
455  13859.859
450  13652.09
445  13458.568
440  14241.451
435  13733.389
430  14381.09
425  14146.976
420  14642.603
415  14577
410  14340.696
405  13989.016
400  14796.482
395  14723.618
390  14510.811
385  14388.381
380  15420.029
375  14900.83
370  14045.839
365  14386.55
360  14620.264
355  14603.389
350  15050.152
345  15029.601
340  15237.318
335  15378.935
330  15588.227
325  15603.011
320  15183.856
315  15618.78
310  16316.761
305  15509.067
300  15485.007
295  15931.475
290  16373.061
285  19486.627
280  15592.501
275  15948.143
270  15849.092
265  15643.391
260  15378.504
255  16119.498
250  16378.606
245  16736.048
240  17498.659
235  16480.626
230  16330.142
225  16733.7
220  16699.831
215  16239.837
210  16189.782
205  17061.186
200  17243.457
195  16535.416
190  16963.153
185  17394.074
180  17076.417
175  17093.115
170  16797.316
165  12668.362
160  12576.317
155  39469.759
150  15196.164
145  9153.37
140  8972.09
135  8859.97
130  8816.17
125  9351.5
120  8561.3
115  5953.38
110  2908.99
105  53060.564
100  15673.543
95  1571.7
90  1584.65
85  1692.89
80  1592.92
75  1844.03
70  1983.96
65  1878.34
60  1875.06
55  2352.28
50  2437.59
45  1909.75
40  1807.01
35  1648.59
30  3259.07
25  4252.624
20  538.625
15  2107.24
10  1908.07
5  346.474
0  40.69169