File: SiO 10.xy
# Created by:        SpecsLab Prodigy, Version 4.50.2-r79252
#
# XY-Serializer Export Settings:
#   Comment Prefix:           #
#   Output meta data:         yes
#   Energy Axis:              Binding Energy
#   Count Rate:               Counts per Second
#   Separate Scan Data:       no
#   Separate Channel Data:    no
#   External Channel Data:    yes
#   Transmission Function:    no
#   ErrorBar:                 no
#   Operation Results:        yes
#   Time Zone Format:         UTC
#
# Group:             Spectrum Group 15
#
# Region:            C1s
# Acquisition Date:  10/25/19 17:46:23 UTC
# Analysis Method:   XPS
# Analyzer:          Phoibos
# Analyzer Lens:     MediumArea:1.5kV
# Analyzer Slit:     5:7x20\B:open
# Scan Mode:         FixedAnalyzerTransmission
# Curves/Scan:       1
# Values/Curve:      71
# Dwell Time:        0.1
# Excitation Energy: 1486.71
# Binding Energy:    289
# Pass Energy:       10
# Bias Voltage:      90
# Detector Voltage:  1900
# Eff. Workfunction: 4.395
# Source:            Focus
# Comment:
#
# Cycle: 0
# Number of Scans: 12
#
# Cycle: 0, Curve: 0
# Acquisition Date: 10/25/19 17:46:23 UTC
#
# ColumnLabels: energy counts/s
#
289  911.339
288.9  919.6
288.8  899.0661
288.7  955.204
288.6  934.854
288.5  920.314
288.4  926.678
288.3  944.291
288.2  953.509
288.1  975.125
288  943.525
287.9  976.859
287.8  992.594
287.7  993.808
287.6  1009.62
287.5  981.18
287.4  1051.06
287.3  1048.18
287.2  1041.82
287.1  1090.83
287  1084.94
286.9  1142.48
286.8  1160.02
286.7  1253.14
286.6  1296.406
286.5  1283.42
286.4  1337.72
286.3  1391.94
286.2  1422.57
286.1  1461.63
286  1481.96
285.9  1456.369
285.8  1435.99
285.7  1385.05
285.6  1341.654
285.5  1249.92
285.4  1171.18
285.3  1092.75
285.2  1069.51
285.1  1037.492
285  984.279
284.9  970.997
284.8  892.706
284.7  893.33
284.6  889.543
284.5  927.354
284.4  891.599
284.3  878.268
284.2  861.717
284.1  852.951
284  826.284
283.9  891.718
283.8  886.075
283.7  840.3727
283.6  888.7816
283.5  891.597
283.4  818.782
283.3  859.1661
283.2  875.118
283.1  855.476
283  870.283
282.9  871.427
282.8  891.298
282.7  856.186
282.6  837.855
282.5  861.847
282.4  895.49
282.3  868.7036
282.2  852.631
282.1  882.209
282  885.744