File: SiO 14.xy
# Created by:        SpecsLab Prodigy, Version 4.50.2-r79252
#
# XY-Serializer Export Settings:
#   Comment Prefix:           #
#   Output meta data:         yes
#   Energy Axis:              Binding Energy
#   Count Rate:               Counts per Second
#   Separate Scan Data:       no
#   Separate Channel Data:    no
#   External Channel Data:    yes
#   Transmission Function:    no
#   ErrorBar:                 no
#   Operation Results:        yes
#   Time Zone Format:         UTC
#
# Group:             Spectrum Group 25
#
# Region:            O1s
# Acquisition Date:  10/25/19 18:22:51 UTC
# Analysis Method:   XPS
# Analyzer:          Phoibos
# Analyzer Lens:     MediumArea:1.5kV
# Analyzer Slit:     5:7x20\B:open
# Scan Mode:         FixedAnalyzerTransmission
# Curves/Scan:       1
# Values/Curve:      491
# Dwell Time:        0.1
# Excitation Energy: 1486.71
# Binding Energy:    570
# Pass Energy:       10
# Bias Voltage:      90
# Detector Voltage:  1900
# Eff. Workfunction: 4.395
# Source:            Focus
# Comment:
#
# Cycle: 0
# Number of Scans: 12
#
# Cycle: 0, Curve: 0
# Acquisition Date: 10/25/19 18:22:51 UTC
#
# ColumnLabels: energy counts/s
#
570  1654.3
569.8  1655.21
569.6  1628.92
569.4  1666.53
569.2  1618.834
569  1644.73
568.8  1617.75
568.6  1557.94
568.4  1664.13
568.2  1556.44
568  1569.11
567.8  1620.95
567.6  1657.78
567.4  1592.45
567.2  1569.38
567  1570.312
566.8  1614.46
566.6  1649.99
566.4  1740.46
566.2  1638.19
566  1744.34
565.8  1675.71
565.6  1638.889
565.4  1765.31
565.2  1706.85
565  1752.87
564.8  1754.64
564.6  1736.08
564.4  1785.43
564.2  1837.66
564  1810.31
563.8  1775.43
563.6  1773.11
563.4  1780.11
563.2  1878.01
563  1858.04
562.8  1883.65
562.6  1848.38
562.4  1951.99
562.2  1846.15
562  1902.24
561.8  1931.96
561.6  1947.37
561.4  2004.97
561.2  2007.17
561  2062.64
560.8  2073.42
560.6  1958.47
560.4  1992.653
560.2  2036.87
560  2041.56
559.8  2033.56
559.6  2055.53
559.4  2049.57
559.2  2066.74
559  2060.61
558.8  2082.723
558.6  2103.36
558.4  2098.59
558.2  2017.6
558  2098.43
557.8  2106.96
557.6  2186.13
557.4  2157.53
557.2  2179.876
557  2268.67
556.8  2214.93
556.6  2208.15
556.4  2311.11
556.2  2230.3
556  2240.53
555.8  2241.71
555.6  2177.88
555.4  2079.77
555.2  2071.55
555  1933.15
554.8  1943.337
554.6  1993.05
554.4  1938.99
554.2  1896.93
554  1889.99
553.8  1827.5
553.6  1839.28
553.4  1803.78
553.2  1758.96
553  1749.65
552.8  1728.42
552.6  1699.8
552.4  1697.99
552.2  1622.703
552  1633.98
551.8  1629.03
551.6  1639.929
551.4  1601.9
551.2  1563.73
551  1599.24
550.8  1596.32
550.6  1497.47
550.4  1586.22
550.2  1576.85
550  1558.09
549.8  1590.56
549.6  1593.94
549.4  1548.233
549.2  1543.09
549  1518.6
548.8  1476.31
548.6  1493.46
548.4  1475
548.2  1465.78
548  1417.97
547.8  1411.38
547.6  1429.51
547.4  1361.43
547.2  1384.883
547  1375.8
546.8  1344.42
546.6  1359.62
546.4  1334.17
546.2  1317.51
546  1379.69
545.8  1293.81
545.6  1286.65
545.4  1234.35
545.2  1209.69
545  1130.97
544.8  1151.9
544.6  1128.24
544.4  1029.58
544.2  1015.37
544  917.377
543.8  925.178
543.6  933.882
543.4  870.898
543.2  867.314
543  839.304
542.8  814.804
542.6  828.804
542.4  788.332
542.2  795.988
542  833.592
541.8  781.09
541.6  805.853
541.4  812.631
541.2  785.637
541  799.191
540.8  765.148
540.6  771.301
540.4  826.933
540.2  758.287
540  802.196
539.8  783.635
539.6  785.9
539.4  771.915
539.2  797.6057
539  793.5
538.8  760.775
538.6  802.017
538.4  821.089
538.2  796.3319
538  819.503
537.8  803.891
537.6  808.121
537.4  871.164
537.2  891.196
537  896.127
536.8  902.359
536.6  962.047
536.4  1099.9
536.2  1222.04
536  1554.11
535.8  2042.13
535.6  2875.49
535.4  4115.84
535.2  6258.7
535  9216.99
534.8  12450.2
534.6  16184.031
534.4  18691.124
534.2  19910.868
534  18642.622
533.8  15439.942
533.6  11440.2
533.4  7842.34
533.2  5084.93
533  3265.62
532.8  2241.48
532.6  1717.07
532.4  1399.86
532.2  1254.5
532  1077.94
531.8  1038.75
531.6  982.278
531.4  890.479
531.2  841.043
531  896.383
530.8  803.3992
530.6  778.315
530.4  789.889
530.2  753.093
530  781.875
529.8  740.461
529.6  746.153
529.4  752.509
529.2  743.272
529  762.044
528.8  719.139
528.6  737.561
528.4  699.807
528.2  694.844
528  724.532
527.8  738.855
527.6  727.332
527.4  751.515
527.2  706.579
527  704.145
526.8  687.289
526.6  702.613
526.4  696.533
526.2  690.198
526  689.586
525.8  652.8
525.6  705.8
525.4  728.959
525.2  675.536
525  685.536
524.8  710.272
524.6  737.2555
524.4  679.0941
524.2  679.507
524  686.275
523.8  683.474
523.6  693.771
523.4  699.288
523.2  679.548
523  709.065
522.8  724.002
522.6  672.801
522.4  702.799
522.2  708.392
522  732.049
521.8  673.209
521.6  701.673
521.4  662.146
521.2  683.235
521  681.801