File: SiO 7.xy
# Created by:        SpecsLab Prodigy, Version 4.50.2-r79252
#
# XY-Serializer Export Settings:
#   Comment Prefix:           #
#   Output meta data:         yes
#   Energy Axis:              Binding Energy
#   Count Rate:               Counts per Second
#   Separate Scan Data:       no
#   Separate Channel Data:    no
#   External Channel Data:    yes
#   Transmission Function:    no
#   ErrorBar:                 no
#   Operation Results:        yes
#   Time Zone Format:         UTC
#
# Group:             Spectrum Group 5
#
# Region:            C1s
# Acquisition Date:  10/25/19 17:26:35 UTC
# Analysis Method:   XPS
# Analyzer:          Phoibos
# Analyzer Lens:     MediumArea:1.5kV
# Analyzer Slit:     5:7x20\B:open
# Scan Mode:         FixedAnalyzerTransmission
# Curves/Scan:       1
# Values/Curve:      71
# Dwell Time:        0.1
# Excitation Energy: 1486.71
# Binding Energy:    289
# Pass Energy:       10
# Bias Voltage:      90
# Detector Voltage:  1900
# Eff. Workfunction: 4.395
# Source:            Focus
# Comment:
#
# Cycle: 0
# Number of Scans: 12
#
# Cycle: 0, Curve: 0
# Acquisition Date: 10/25/19 17:26:35 UTC
#
# ColumnLabels: energy counts/s
#
289  1014.98
288.9  987.49
288.8  988.0005
288.7  967.569
288.6  1031.12
288.5  1043.04
288.4  1025.5
288.3  1034.38
288.2  1049.12
288.1  1006.11
288  1046.09
287.9  1023.416
287.8  1047.65
287.7  1082.85
287.6  1079.7
287.5  1090.27
287.4  1104.12
287.3  1132.92
287.2  1205.91
287.1  1182.92
287  1264.75
286.9  1263.41
286.8  1316.43
286.7  1390.94
286.6  1445.42
286.5  1467.59
286.4  1515.11
286.3  1545.404
286.2  1615.18
286.1  1602.84
286  1607.65
285.9  1556.22
285.8  1530.96
285.7  1493.36
285.6  1443.991
285.5  1352.95
285.4  1337.87
285.3  1235.04
285.2  1152.94
285.1  1144.16
285  1158.201
284.9  1085.98
284.8  1042.44
284.7  1047.06
284.6  994.699
284.5  986.183
284.4  994.014
284.3  946.813
284.2  987.542
284.1  953.224
284  948.267
283.9  967.634
283.8  984.909
283.7  991.645
283.6  968.033
283.5  971.967
283.4  998.453
283.3  1007.95
283.2  967.222
283.1  931.52
283  970.699
282.9  1009.89
282.8  943.973
282.7  973.803
282.6  958.852
282.5  956.488
282.4  945.533
282.3  977.06
282.2  941.072
282.1  909.678
282  985.7748