File: SiO 23(O).xy
# Created by:        SpecsLab Prodigy, Version 4.50.2-r79252
#
# XY-Serializer Export Settings:
#   Comment Prefix:           #
#   Output meta data:         yes
#   Energy Axis:              Binding Energy
#   Count Rate:               Counts per Second
#   Separate Scan Data:       no
#   Separate Channel Data:    no
#   External Channel Data:    yes
#   Transmission Function:    no
#   ErrorBar:                 no
#   Operation Results:        yes
#   Time Zone Format:         UTC
#
# Group:             Spectrum Group 55
#
# Region:            O1s
# Acquisition Date:  10/25/19 19:49:46 UTC
# Analysis Method:   XPS
# Analyzer:          Phoibos
# Analyzer Lens:     MediumArea:1.5kV
# Analyzer Slit:     5:7x20\B:open
# Scan Mode:         FixedAnalyzerTransmission
# Curves/Scan:       1
# Values/Curve:      491
# Dwell Time:        0.1
# Excitation Energy: 1486.71
# Binding Energy:    570
# Pass Energy:       10
# Bias Voltage:      90
# Detector Voltage:  1900
# Eff. Workfunction: 4.395
# Source:            Focus
# Comment:
#
# Cycle: 0
# Number of Scans: 12
#
# Cycle: 0, Curve: 0
# Acquisition Date: 10/25/19 19:49:46 UTC
#
# ColumnLabels: energy counts/s
#
570  969.377
569.8  1003.5
569.6  1024.96
569.4  986.184
569.2  995.874
569  1036.72
568.8  1018.58
568.6  1007.79
568.4  993.023
568.2  981.236
568  1010.68
567.8  998.214
567.6  992.893
567.4  1009.1
567.2  988.177
567  1009.7
566.8  1035.09
566.6  1044.24
566.4  1046.45
566.2  1025.79
566  1071.608
565.8  1083.62
565.6  1060.369
565.4  1034.44
565.2  1043.19
565  1078.41
564.8  1069.4
564.6  1110.05
564.4  1044.81
564.2  1106.23
564  1095.64
563.8  1119.854
563.6  1090.18
563.4  1156.76
563.2  1133.53
563  1158.97
562.8  1138.61
562.6  1186.19
562.4  1186.05
562.2  1163.89
562  1223.806
561.8  1245.94
561.6  1230.59
561.4  1240.823
561.2  1193.28
561  1233.67
560.8  1243.21
560.6  1259.25
560.4  1251.75
560.2  1276.12
560  1225.91
559.8  1298.99
559.6  1276.43
559.4  1239.76
559.2  1292.49
559  1240.79
558.8  1233.06
558.6  1295.92
558.4  1260.13
558.2  1330.02
558  1296.045
557.8  1338.74
557.6  1329.98
557.4  1368.55
557.2  1339.6
557  1373.14
556.8  1386.03
556.6  1389.229
556.4  1409.58
556.2  1378.66
556  1397.08
555.8  1318.63
555.6  1350.91
555.4  1266.82
555.2  1288.19
555  1268.11
554.8  1232.12
554.6  1197.14
554.4  1204.6
554.2  1208.22
554  1183.51
553.8  1183.32
553.6  1111.33
553.4  1096.21
553.2  1087.86
553  1016.24
552.8  1077.6
552.6  1021.69
552.4  1031.63
552.2  1047.16
552  985.991
551.8  1007.41
551.6  989.182
551.4  956.728
551.2  978.544
551  997.146
550.8  967.247
550.6  900.71
550.4  923.139
550.2  959.069
550  960.755
549.8  920.779
549.6  966.757
549.4  911.875
549.2  945.388
549  926.8
548.8  912.0784
548.6  930.703
548.4  907.65
548.2  871.138
548  842.4235
547.8  870.3375
547.6  851.333
547.4  831.767
547.2  847.2082
547  819.728
546.8  860.311
546.6  801.191
546.4  732.68
546.2  770.484
546  771.806
545.8  773.338
545.6  756.89
545.4  723.5969
545.2  689.861
545  694.876
544.8  649.2882
544.6  575.1184
544.4  588.238
544.2  553.502
544  523.756
543.8  520.528
543.6  515.377
543.4  500.151
543.2  477.932
543  451.54
542.8  459.047
542.6  464.343
542.4  444.571
542.2  417.565
542  428.421
541.8  440.957
541.6  408.104
541.4  396.383
541.2  398.5736
541  431.795
540.8  428.251
540.6  405.127
540.4  438.195
540.2  427.396
540  438.4517
539.8  417.348
539.6  424.601
539.4  391.982
539.2  425.8145
539  417.706
538.8  413.1
538.6  465.531
538.4  442.527
538.2  396.614
538  457.333
537.8  428.846
537.6  455.743
537.4  462.581
537.2  474.247
537  469.63
536.8  523.809
536.6  581.698
536.4  617.175
536.2  731.906
536  969.446
535.8  1332.57
535.6  1971.89
535.4  3022.82
535.2  4645.71
535  6555.266
534.8  8928.92
534.6  11035.55
534.4  12173.969
534.2  12017.274
534  10417.279
533.8  8240.1
533.6  5682.3
533.4  3574.22
533.2  2336.94
533  1497.19
532.8  1032.33
532.6  830.872
532.4  731.9161
532.2  652.321
532  582.284
531.8  552.876
531.6  502.3397
531.4  483.606
531.2  496.147
531  449.925
530.8  419.1181
530.6  431.318
530.4  392.245
530.2  440.5884
530  420.385
529.8  427.603
529.6  425.858
529.4  386.118
529.2  377.769
529  401.159
528.8  383.665
528.6  372.431
528.4  387.722
528.2  377.212
528  408.544
527.8  375.263
527.6  380.848
527.4  391.216
527.2  386.8094
527  365.277
526.8  391.3093
526.6  367.9963
526.4  377.897
526.2  367.119
526  366.155
525.8  385.702
525.6  404.335
525.4  379.655
525.2  373.595
525  392.564
524.8  369.147
524.6  377.12
524.4  353.548
524.2  385.735
524  368.1044
523.8  365.244
523.6  362.232
523.4  355.214
523.2  396.633
523  353.669
522.8  375.384
522.6  350.28
522.4  389.981
522.2  361.065
522  356.668
521.8  381.387
521.6  350.143
521.4  367.697
521.2  385.79
521  382.413