File: SiO 16.xy
# Created by:        SpecsLab Prodigy, Version 4.50.2-r79252
#
# XY-Serializer Export Settings:
#   Comment Prefix:           #
#   Output meta data:         yes
#   Energy Axis:              Binding Energy
#   Count Rate:               Counts per Second
#   Separate Scan Data:       no
#   Separate Channel Data:    no
#   External Channel Data:    yes
#   Transmission Function:    no
#   ErrorBar:                 no
#   Operation Results:        yes
#   Time Zone Format:         UTC
#
# Group:             Spectrum Group 35
#
# Region:            C1s
# Acquisition Date:  10/25/19 18:37:03 UTC
# Analysis Method:   XPS
# Analyzer:          Phoibos
# Analyzer Lens:     MediumArea:1.5kV
# Analyzer Slit:     5:7x20\B:open
# Scan Mode:         FixedAnalyzerTransmission
# Curves/Scan:       1
# Values/Curve:      71
# Dwell Time:        0.1
# Excitation Energy: 1486.71
# Binding Energy:    289
# Pass Energy:       10
# Bias Voltage:      90
# Detector Voltage:  1900
# Eff. Workfunction: 4.395
# Source:            Focus
# Comment:
#
# Cycle: 0
# Number of Scans: 12
#
# Cycle: 0, Curve: 0
# Acquisition Date: 10/25/19 18:37:03 UTC
#
# ColumnLabels: energy counts/s
#
289  682.4181
288.9  685.48
288.8  650.817
288.7  724.465
288.6  715.206
288.5  682.945
288.4  730.663
288.3  733.493
288.2  704.676
288.1  722.6454
288  708.84
287.9  717.934
287.8  684.999
287.7  724.483
287.6  720.517
287.5  721.168
287.4  759.971
287.3  777.225
287.2  781.387
287.1  844.3004
287  885.655
286.9  894.766
286.8  934.38
286.7  990.473
286.6  998.957
286.5  1049.38
286.4  1106.61
286.3  1118.28
286.2  1156.6
286.1  1158.88
286  1153.97
285.9  1128.3
285.8  1146.7
285.7  1041.22
285.6  1050.56
285.5  1004.6
285.4  964.26
285.3  933.051
285.2  807.331
285.1  761.341
285  741.74
284.9  762.822
284.8  701.952
284.7  698.058
284.6  672.241
284.5  680.835
284.4  677.8219
284.3  665.493
284.2  678.433
284.1  733.434
284  718.8302
283.9  660.404
283.8  658.8084
283.7  708.6407
283.6  678.558
283.5  690.668
283.4  667.632
283.3  683.6434
283.2  680.765
283.1  661.614
283  653.42
282.9  630.866
282.8  678.131
282.7  685.9
282.6  699.8581
282.5  698.587
282.4  689.006
282.3  683.439
282.2  678.004
282.1  671.289
282  695.57