File: SiO 3.xy
# Created by:        SpecsLab Prodigy, Version 4.50.2-r79252
#
# XY-Serializer Export Settings:
#   Comment Prefix:           #
#   Output meta data:         yes
#   Energy Axis:              Binding Energy
#   Count Rate:               Counts per Second
#   Separate Scan Data:       no
#   Separate Channel Data:    no
#   External Channel Data:    yes
#   Transmission Function:    no
#   ErrorBar:                 no
#   Operation Results:        yes
#   Time Zone Format:         UTC
#
# Group:             Spectrum Group 0
#
# Region:            O1s
# Acquisition Date:  10/25/19 17:06:56 UTC
# Analysis Method:   XPS
# Analyzer:          Phoibos
# Analyzer Lens:     MediumArea:1.5kV
# Analyzer Slit:     5:7x20\B:open
# Scan Mode:         FixedAnalyzerTransmission
# Curves/Scan:       1
# Values/Curve:      491
# Dwell Time:        0.1
# Excitation Energy: 1486.71
# Binding Energy:    570
# Pass Energy:       10
# Bias Voltage:      90
# Detector Voltage:  1900
# Eff. Workfunction: 4.395
# Source:            Focus
# Comment:
#
# Cycle: 0
# Number of Scans: 12
#
# Cycle: 0, Curve: 0
# Acquisition Date: 10/25/19 17:06:56 UTC
#
# ColumnLabels: energy counts/s
#
570  2373.78
569.8  2328.56
569.6  2344.6
569.4  2310.816
569.2  2307.49
569  2267.32
568.8  2256.47
568.6  2268.2
568.4  2293.21
568.2  2249.15
568  2272.2
567.8  2235.25
567.6  2232.25
567.4  2213.23
567.2  2246.8
567  2368.671
566.8  2344.99
566.6  2413.97
566.4  2483.34
566.2  2351.783
566  2404.49
565.8  2386.59
565.6  2345.73
565.4  2365.8
565.2  2456.45
565  2435.051
564.8  2407.55
564.6  2542.84
564.4  2517.32
564.2  2500.07
564  2510.59
563.8  2533.349
563.6  2604.51
563.4  2670.72
563.2  2601.72
563  2675.4
562.8  2740.47
562.6  2737.51
562.4  2659.36
562.2  2695.08
562  2674.65
561.8  2762.37
561.6  2811.14
561.4  2816.95
561.2  2860.919
561  2866.7
560.8  2813.63
560.6  2860.73
560.4  2748.272
560.2  2792.94
560  2931.27
559.8  2863.79
559.6  2866.54
559.4  2898.3
559.2  2849.7
559  2865.651
558.8  2911.524
558.6  2952.61
558.4  2892.75
558.2  2945.01
558  3008.18
557.8  3100.94
557.6  3033.21
557.4  3079
557.2  3060.03
557  3159.03
556.8  3145.14
556.6  3103.92
556.4  3203.75
556.2  3173.01
556  3094
555.8  3162.894
555.6  3004.31
555.4  2974.68
555.2  2889.26
555  2831.24
554.8  2777.66
554.6  2799.32
554.4  2772.96
554.2  2717.87
554  2711.691
553.8  2667.46
553.6  2597.53
553.4  2582.39
553.2  2581.93
553  2465.739
552.8  2413.43
552.6  2402.86
552.4  2370.79
552.2  2328.12
552  2392.09
551.8  2295.91
551.6  2275.82
551.4  2216.94
551.2  2298.54
551  2198.89
550.8  2223.13
550.6  2217.19
550.4  2309.29
550.2  2257.14
550  2191.094
549.8  2234.35
549.6  2212.4
549.4  2137.581
549.2  2175.83
549  2158.302
548.8  2080.19
548.6  2120.89
548.4  2115.41
548.2  2086.77
548  2010.73
547.8  1959.51
547.6  2021.6
547.4  1919.076
547.2  1971.59
547  1839.17
546.8  1878.98
546.6  1904.51
546.4  1860.37
546.2  1845.6
546  1801.94
545.8  1755.4
545.6  1779.58
545.4  1695.24
545.2  1705.02
545  1654.4
544.8  1488.172
544.6  1499.22
544.4  1406.04
544.2  1425.56
544  1360.6
543.8  1295.5
543.6  1248.35
543.4  1251.17
543.2  1188.64
543  1149.819
542.8  1151.77
542.6  1156.87
542.4  1141.18
542.2  1135.57
542  1113.3
541.8  1113.62
541.6  1085.08
541.4  1120.82
541.2  1065.53
541  1116.61
540.8  1105.96
540.6  1075.686
540.4  1126.81
540.2  1140.58
540  1087.21
539.8  1086.51
539.6  1082.55
539.4  1093.23
539.2  1073.48
539  1148.35
538.8  1109.175
538.6  1129.99
538.4  1082.39
538.2  1178.5
538  1168.298
537.8  1134.303
537.6  1159.38
537.4  1185.41
537.2  1249.98
537  1267.372
536.8  1317.9
536.6  1366.267
536.4  1605.6
536.2  1896.628
536  2483.39
535.8  3427.406
535.6  4881.05
535.4  7305.23
535.2  10558.223
535  15106.834
534.8  19906.969
534.6  24638.344
534.4  27569.588
534.2  27376.089
534  24522.096
533.8  19276.676
533.6  13920.986
533.4  9188.91
533.2  5882.36
533  3899.179
532.8  2888.23
532.6  2288.5
532.4  1862.19
532.2  1660.18
532  1542.71
531.8  1412.501
531.6  1318.87
531.4  1275.1
531.2  1205.66
531  1168.96
530.8  1150.33
530.6  1053.309
530.4  1081.56
530.2  1094.59
530  1083.96
529.8  1056.57
529.6  1057.16
529.4  1044.08
529.2  1011.8
529  990.055
528.8  1002.57
528.6  1002.233
528.4  1039.43
528.2  1009.17
528  1035.27
527.8  1021.8
527.6  968.631
527.4  998.039
527.2  956.775
527  1008.2
526.8  942.309
526.6  937.342
526.4  1001.25
526.2  999.142
526  945.133
525.8  959.263
525.6  963.631
525.4  966.682
525.2  999.987
525  1008.66
524.8  976.37
524.6  983.177
524.4  965.099
524.2  972.716
524  968.411
523.8  959.838
523.6  1009.09
523.4  988.202
523.2  962.658
523  1000.21
522.8  987.881
522.6  981.6816
522.4  982.652
522.2  955.27
522  996.074
521.8  953.648
521.6  964.03
521.4  966.6134
521.2  952.297
521  973.377