File: SiO 20.xy
# Created by:        SpecsLab Prodigy, Version 4.50.2-r79252
#
# XY-Serializer Export Settings:
#   Comment Prefix:           #
#   Output meta data:         yes
#   Energy Axis:              Binding Energy
#   Count Rate:               Counts per Second
#   Separate Scan Data:       no
#   Separate Channel Data:    no
#   External Channel Data:    yes
#   Transmission Function:    no
#   ErrorBar:                 no
#   Operation Results:        yes
#   Time Zone Format:         UTC
#
# Group:             Spectrum Group 45
#
# Region:            O1s
# Acquisition Date:  10/25/19 19:14:47 UTC
# Analysis Method:   XPS
# Analyzer:          Phoibos
# Analyzer Lens:     MediumArea:1.5kV
# Analyzer Slit:     5:7x20\B:open
# Scan Mode:         FixedAnalyzerTransmission
# Curves/Scan:       1
# Values/Curve:      491
# Dwell Time:        0.1
# Excitation Energy: 1486.71
# Binding Energy:    570
# Pass Energy:       10
# Bias Voltage:      90
# Detector Voltage:  1900
# Eff. Workfunction: 4.395
# Source:            Focus
# Comment:
#
# Cycle: 0
# Number of Scans: 12
#
# Cycle: 0, Curve: 0
# Acquisition Date: 10/25/19 19:14:47 UTC
#
# ColumnLabels: energy counts/s
#
570  1256.21
569.8  1302.94
569.6  1255.83
569.4  1265.11
569.2  1226.58
569  1305.11
568.8  1231.13
568.6  1244.96
568.4  1239.37
568.2  1210.87
568  1194
567.8  1248.06
567.6  1231.13
567.4  1222.5
567.2  1235.16
567  1231.14
566.8  1249.2
566.6  1200.73
566.4  1291.36
566.2  1296.07
566  1296.7
565.8  1272.293
565.6  1242.99
565.4  1321.61
565.2  1293.05
565  1325.33
564.8  1348.89
564.6  1339.91
564.4  1373.62
564.2  1386.46
564  1383.31
563.8  1373.19
563.6  1360.452
563.4  1385.37
563.2  1420.13
563  1411.17
562.8  1440.78
562.6  1448.51
562.4  1497.39
562.2  1458.56
562  1520.3
561.8  1446.88
561.6  1497.27
561.4  1537.78
561.2  1542.82
561  1533.48
560.8  1470.69
560.6  1522.289
560.4  1547.15
560.2  1559.23
560  1593.42
559.8  1595.18
559.6  1573.16
559.4  1572.396
559.2  1548.7
559  1539.67
558.8  1598.94
558.6  1609.94
558.4  1618.53
558.2  1566.02
558  1667.58
557.8  1623.18
557.6  1649.68
557.4  1642.88
557.2  1664.34
557  1769.943
556.8  1738.13
556.6  1734.89
556.4  1662.14
556.2  1749.63
556  1695.03
555.8  1607.19
555.6  1623.83
555.4  1622.82
555.2  1595.72
555  1579.19
554.8  1555.96
554.6  1534.66
554.4  1481.58
554.2  1505.2
554  1458.87
553.8  1381.46
553.6  1365.89
553.4  1426.65
553.2  1395.91
553  1363.68
552.8  1344.6
552.6  1351.98
552.4  1239.2
552.2  1309.09
552  1246.24
551.8  1282.13
551.6  1270.48
551.4  1232.71
551.2  1218.62
551  1220.762
550.8  1218.86
550.6  1150.82
550.4  1187.47
550.2  1158.98
550  1140.88
549.8  1159.624
549.6  1171.49
549.4  1195.011
549.2  1131.07
549  1119.004
548.8  1135.408
548.6  1137.81
548.4  1106.6
548.2  1073.66
548  1068.26
547.8  1063.99
547.6  1081.48
547.4  1025.01
547.2  1047.27
547  1013.26
546.8  1055.01
546.6  999.277
546.4  959.811
546.2  995.887
546  960.527
545.8  991.469
545.6  968.074
545.4  945.926
545.2  858.831
545  875.505
544.8  782.9351
544.6  816.363
544.4  727.007
544.2  723.017
544  697.007
543.8  667.582
543.6  646.575
543.4  601.437
543.2  605.145
543  604.305
542.8  607.857
542.6  591.4427
542.4  601.278
542.2  585.749
542  563.35
541.8  523.521
541.6  573.431
541.4  551.076
541.2  554.795
541  545.864
540.8  551.381
540.6  531.062
540.4  575.17
540.2  569.388
540  518.265
539.8  577.4524
539.6  534.0527
539.4  575.185
539.2  569.491
539  542.399
538.8  570.468
538.6  553.593
538.4  521.624
538.2  573.384
538  608.513
537.8  591.312
537.6  606.756
537.4  613.292
537.2  602.527
537  637.2731
536.8  687.8474
536.6  729.494
536.4  778.607
536.2  952.69
536  1220.17
535.8  1647.989
535.6  2364.52
535.4  3674.65
535.2  5427.05
535  7805.2
534.8  10533.748
534.6  13180.07
534.4  15124.22
534.2  15116.933
534  13546.902
533.8  10882.269
533.6  7723.3
533.4  5075.42
533.2  3163.99
533  2003.37
532.8  1465.6
532.6  1150.05
532.4  937.166
532.2  812.965
532  756.171
531.8  721.626
531.6  647.977
531.4  610.412
531.2  591.1513
531  605.969
530.8  600.45
530.6  532.687
530.4  535.723
530.2  552.7636
530  541.523
529.8  534.289
529.6  527.614
529.4  536.959
529.2  504.744
529  507.3741
528.8  500.234
528.6  488.675
528.4  477.003
528.2  514.27
528  514.051
527.8  506.287
527.6  511.611
527.4  503.229
527.2  502.774
527  504.901
526.8  508.406
526.6  479.057
526.4  510.433
526.2  490.588
526  502.5
525.8  500.281
525.6  453.438
525.4  480.013
525.2  526.2361
525  490.682
524.8  511.683
524.6  485.642
524.4  508.027
524.2  477.726
524  485.247
523.8  470.883
523.6  497.312
523.4  489.169
523.2  491.722
523  493.35
522.8  481.815
522.6  498.189
522.4  488.997
522.2  495.408
522  510.255
521.8  511.8425
521.6  481.221
521.4  517.905
521.2  512.637
521  498.303