File: SiO 13.xy
# Created by:        SpecsLab Prodigy, Version 4.50.2-r79252
#
# XY-Serializer Export Settings:
#   Comment Prefix:           #
#   Output meta data:         yes
#   Energy Axis:              Binding Energy
#   Count Rate:               Counts per Second
#   Separate Scan Data:       no
#   Separate Channel Data:    no
#   External Channel Data:    yes
#   Transmission Function:    no
#   ErrorBar:                 no
#   Operation Results:        yes
#   Time Zone Format:         UTC
#
# Group:             Spectrum Group 25
#
# Region:            C1s
# Acquisition Date:  10/25/19 18:11:28 UTC
# Analysis Method:   XPS
# Analyzer:          Phoibos
# Analyzer Lens:     MediumArea:1.5kV
# Analyzer Slit:     5:7x20\B:open
# Scan Mode:         FixedAnalyzerTransmission
# Curves/Scan:       1
# Values/Curve:      71
# Dwell Time:        0.1
# Excitation Energy: 1486.71
# Binding Energy:    289
# Pass Energy:       10
# Bias Voltage:      90
# Detector Voltage:  1900
# Eff. Workfunction: 4.395
# Source:            Focus
# Comment:
#
# Cycle: 0
# Number of Scans: 12
#
# Cycle: 0, Curve: 0
# Acquisition Date: 10/25/19 18:11:28 UTC
#
# ColumnLabels: energy counts/s
#
289  771.529
288.9  815.036
288.8  823.529
288.7  798.289
288.6  820.724
288.5  784.811
288.4  765.416
288.3  831.209
288.2  823.396
288.1  838.902
288  849.991
287.9  824.017
287.8  836.285
287.7  848.204
287.6  903.673
287.5  859.111
287.4  945.658
287.3  889.225
287.2  927.753
287.1  992.151
287  1004.23
286.9  986.479
286.8  1018.86
286.7  1068.9
286.6  1147.25
286.5  1181.89
286.4  1216.77
286.3  1242.06
286.2  1254.47
286.1  1300.8
286  1323.49
285.9  1303.82
285.8  1277.27
285.7  1213.21
285.6  1153.75
285.5  1114.05
285.4  1086.17
285.3  1078.99
285.2  946.621
285.1  923.0629
285  892.9777
284.9  866.74
284.8  827.644
284.7  832.841
284.6  825.272
284.5  777.786
284.4  736.81
284.3  783.056
284.2  821.636
284.1  806.91
284  804.551
283.9  737.458
283.8  774.442
283.7  762.293
283.6  791.845
283.5  788.9126
283.4  772.649
283.3  792.225
283.2  786.223
283.1  799.6604
283  744.446
282.9  737.236
282.8  719.978
282.7  750.7
282.6  788.017
282.5  762.705
282.4  774.638
282.3  785.424
282.2  735.767
282.1  779.21
282  747.481