File: SiO 12(Si).xy
# Created by:        SpecsLab Prodigy, Version 4.50.2-r79252
#
# XY-Serializer Export Settings:
#   Comment Prefix:           #
#   Output meta data:         yes
#   Energy Axis:              Binding Energy
#   Count Rate:               Counts per Second
#   Separate Scan Data:       no
#   Separate Channel Data:    no
#   External Channel Data:    yes
#   Transmission Function:    no
#   ErrorBar:                 no
#   Operation Results:        yes
#   Time Zone Format:         UTC
#
# Group:             Spectrum Group 15
#
# Region:            Si2p
# Acquisition Date:  10/25/19 18:01:34 UTC
# Analysis Method:   XPS
# Analyzer:          Phoibos
# Analyzer Lens:     MediumArea:1.5kV
# Analyzer Slit:     5:7x20\B:open
# Scan Mode:         FixedAnalyzerTransmission
# Curves/Scan:       1
# Values/Curve:      151
# Dwell Time:        0.1
# Excitation Energy: 1486.71
# Binding Energy:    110
# Pass Energy:       10
# Bias Voltage:      90
# Detector Voltage:  1900
# Eff. Workfunction: 4.395
# Source:            Focus
# Comment:
#
# Cycle: 0
# Number of Scans: 12
#
# Cycle: 0, Curve: 0
# Acquisition Date: 10/25/19 18:01:34 UTC
#
# ColumnLabels: energy counts/s
#
110  137.21
109.9  155.9331
109.8  138.565
109.7  150.364
109.6  141.864
109.5  154.742
109.4  145.636
109.3  144.496
109.2  145.24
109.1  161.717
109  151.325
108.9  129.234
108.8  146.889
108.7  142.708
108.6  145.762
108.5  125.579
108.4  146.233
108.3  136.659
108.2  154.837
108.1  138
108  132.349
107.9  138.095
107.8  139.255
107.7  143.739
107.6  164.52
107.5  155.4013
107.4  161.153
107.3  171.4289
107.2  179.5
107.1  191.867
107  198.76
106.9  239.8918
106.8  255.355
106.7  322.819
106.6  368.95
106.5  450.434
106.4  543.812
106.3  677.732
106.2  785.177
106.1  1006.41
106  1165.826
105.9  1411.87
105.8  1725.9
105.7  2011.36
105.6  2279.678
105.5  2564
105.4  2838.26
105.3  3126.34
105.2  3327.93
105.1  3543.83
105  3711.49
104.9  3672.93
104.8  3664.76
104.7  3600.3
104.6  3408.03
104.5  3091.236
104.4  2727.12
104.3  2406.08
104.2  2074.65
104.1  1754.72
104  1436.228
103.9  1135.36
103.8  923.42
103.7  765.041
103.6  599.035
103.5  456.2463
103.4  391.892
103.3  335.8175
103.2  278.943
103.1  247.655
103  235.575
102.9  230.423
102.8  198.079
102.7  196.165
102.6  194.824
102.5  194.48
102.4  195.47
102.3  179.315
102.2  153.725
102.1  158.236
102  150.907
101.9  135.589
101.8  148.019
101.7  145.686
101.6  138.753
101.5  150.755
101.4  165.445
101.3  180.692
101.2  172.556
101.1  211.405
101  254.044
100.9  329.897
100.8  451.27
100.7  578.297
100.6  759.832
100.5  895.408
100.4  967.63
100.3  948.614
100.2  964.148
100.1  1036.11
100  1225.17
99.9  1385.66
99.8  1382.05
99.7  1167.42
99.6  784.892
99.5  449.78
99.4  241.343
99.3  141.7235
99.2  115.822
99.1  113.919
99  103.962
98.9  102.229
98.8  99.6479
98.7  83.5264
98.6  103.458
98.5  104.788
98.4  97.6133
98.3  103.409
98.2  94.3562
98.1  87.8124
98  97.8806
97.9  105.815
97.8  104.625
97.7  95.4832
97.6  103.254
97.5  92.3836
97.4  94.0392
97.3  81.6429
97.2  78.2961
97.1  89.9278
97  94.7358
96.9  98.0931
96.8  91.2032
96.7  80.3977
96.6  95.2963
96.5  84.5467
96.4  98.5367
96.3  103.341
96.2  82.4384
96.1  78.7361
96  90.164
95.9  98.7674
95.8  87.0556
95.7  100.575
95.6  90.8219
95.5  98.0169
95.4  89.3911
95.3  89.0457
95.2  88.00017
95.1  86.6863
95  90.5756