File: SiO 4.xy
# Created by:        SpecsLab Prodigy, Version 4.50.2-r79252
#
# XY-Serializer Export Settings:
#   Comment Prefix:           #
#   Output meta data:         yes
#   Energy Axis:              Binding Energy
#   Count Rate:               Counts per Second
#   Separate Scan Data:       no
#   Separate Channel Data:    no
#   External Channel Data:    yes
#   Transmission Function:    no
#   ErrorBar:                 no
#   Operation Results:        yes
#   Time Zone Format:         UTC
#
# Group:             Spectrum Group 0
#
# Region:            Si2p
# Acquisition Date:  10/25/19 17:10:45 UTC
# Analysis Method:   XPS
# Analyzer:          Phoibos
# Analyzer Lens:     MediumArea:1.5kV
# Analyzer Slit:     5:7x20\B:open
# Scan Mode:         FixedAnalyzerTransmission
# Curves/Scan:       1
# Values/Curve:      151
# Dwell Time:        0.1
# Excitation Energy: 1486.71
# Binding Energy:    110
# Pass Energy:       10
# Bias Voltage:      90
# Detector Voltage:  1900
# Eff. Workfunction: 4.395
# Source:            Focus
# Comment:
#
# Cycle: 0
# Number of Scans: 12
#
# Cycle: 0, Curve: 0
# Acquisition Date: 10/25/19 17:10:45 UTC
#
# ColumnLabels: energy counts/s
#
110  188.945
109.9  177.468
109.8  172.2697
109.7  183.703
109.6  169.421
109.5  174.547
109.4  163.533
109.3  168.344
109.2  157.305
109.1  181.176
109  171.673
108.9  171.775
108.8  158.031
108.7  173.97
108.6  167.52
108.5  170.094
108.4  176.672
108.3  177.743
108.2  175.202
108.1  178.864
108  165.34
107.9  177.18
107.8  159.866
107.7  152.043
107.6  184.704
107.5  173.061
107.4  206.521
107.3  195.161
107.2  214.411
107.1  248.169
107  259.414
106.9  288.39
106.8  335.988
106.7  374.781
106.6  450.215
106.5  528.007
106.4  660.2295
106.3  794.666
106.2  1015.53
106.1  1205.31
106  1489.26
105.9  1760.09
105.8  2109.4
105.7  2450.11
105.6  2797.11
105.5  3058.25
105.4  3528.837
105.3  3806.975
105.2  4038.91
105.1  4226.72
105  4337.21
104.9  4261
104.8  4188.5
104.7  4031.05
104.6  3712.31
104.5  3374.23
104.4  3005.44
104.3  2564.11
104.2  2208.669
104.1  1836.7
104  1516.72
103.9  1192.08
103.8  912.271
103.7  747.2476
103.6  587.9145
103.5  517.781
103.4  453.382
103.3  398.46
103.2  326.94
103.1  316.944
103  273.659
102.9  243.169
102.8  226.619
102.7  213.135
102.6  233.573
102.5  218.156
102.4  186.94
102.3  184.12
102.2  201.679
102.1  195.393
102  195.182
101.9  196.229
101.8  182.829
101.7  200.556
101.6  176.809
101.5  181.129
101.4  186.475
101.3  195.266
101.2  215.229
101.1  250.344
101  292.886
100.9  406.612
100.8  517.46
100.7  701.338
100.6  907.148
100.5  1106.21
100.4  1167.41
100.3  1122.23
100.2  1143.64
100.1  1280.7
100  1486.06
99.9  1682.38
99.8  1654.52
99.7  1352.65
99.6  906.045
99.5  531.577
99.4  263.498
99.3  181.31
99.2  163.677
99.1  142.485
99  127.653
98.9  133.184
98.8  123.756
98.7  116.266
98.6  110.835
98.5  113.338
98.4  133.156
98.3  107.191
98.2  92.4407
98.1  114.497
98  103.653
97.9  107.12
97.8  107.5879
97.7  114.949
97.6  114.968
97.5  106.02
97.4  110.45
97.3  107.412
97.2  103.049
97.1  117.54
97  109.59
96.9  96.1498
96.8  101.502
96.7  123.65
96.6  101.821
96.5  109.937
96.4  111.042
96.3  116.024
96.2  109.212
96.1  107.073
96  94.8259
95.9  120.473
95.8  121.238
95.7  115.764
95.6  109.998
95.5  115.464
95.4  102.27
95.3  94.6544
95.2  94.15432
95.1  107.742
95  95.7234