File: SiO 11.xy
# Created by:        SpecsLab Prodigy, Version 4.50.2-r79252
#
# XY-Serializer Export Settings:
#   Comment Prefix:           #
#   Output meta data:         yes
#   Energy Axis:              Binding Energy
#   Count Rate:               Counts per Second
#   Separate Scan Data:       no
#   Separate Channel Data:    no
#   External Channel Data:    yes
#   Transmission Function:    no
#   ErrorBar:                 no
#   Operation Results:        yes
#   Time Zone Format:         UTC
#
# Group:             Spectrum Group 15
#
# Region:            O1s
# Acquisition Date:  10/25/19 17:57:46 UTC
# Analysis Method:   XPS
# Analyzer:          Phoibos
# Analyzer Lens:     MediumArea:1.5kV
# Analyzer Slit:     5:7x20\B:open
# Scan Mode:         FixedAnalyzerTransmission
# Curves/Scan:       1
# Values/Curve:      491
# Dwell Time:        0.1
# Excitation Energy: 1486.71
# Binding Energy:    570
# Pass Energy:       10
# Bias Voltage:      90
# Detector Voltage:  1900
# Eff. Workfunction: 4.395
# Source:            Focus
# Comment:
#
# Cycle: 0
# Number of Scans: 12
#
# Cycle: 0, Curve: 0
# Acquisition Date: 10/25/19 17:57:46 UTC
#
# ColumnLabels: energy counts/s
#
570  1924.79
569.8  1954.41
569.6  1931.1
569.4  1903.23
569.2  1871.69
569  1880.31
568.8  1916.66
568.6  1861.83
568.4  1862.53
568.2  1765.09
568  1911.98
567.8  1900.5
567.6  1829.77
567.4  1898.391
567.2  1918.86
567  1894.39
566.8  1906.83
566.6  1929.77
566.4  1853.73
566.2  1925.45
566  2026.76
565.8  2013.27
565.6  2043.27
565.4  2056.56
565.2  1996.24
565  2067.52
564.8  2048.32
564.6  2021.58
564.4  2044.11
564.2  2094.76
564  2159.73
563.8  2098.74
563.6  2132.08
563.4  2171.57
563.2  2171.33
563  2219.69
562.8  2193.976
562.6  2220.64
562.4  2193.68
562.2  2284.02
562  2316.47
561.8  2256.04
561.6  2267.79
561.4  2332.09
561.2  2354.74
561  2347.72
560.8  2413.9
560.6  2370.31
560.4  2370.19
560.2  2393.17
560  2397.78
559.8  2390.54
559.6  2406.87
559.4  2303.27
559.2  2357.13
559  2437.07
558.8  2393.85
558.6  2466.868
558.4  2410.76
558.2  2493.08
558  2488.6
557.8  2386.96
557.6  2562.5
557.4  2555.3
557.2  2579.09
557  2614.889
556.8  2679.56
556.6  2678.52
556.4  2657.65
556.2  2604.52
556  2535.07
555.8  2569.03
555.6  2514.78
555.4  2450.17
555.2  2358.41
555  2390.15
554.8  2282.08
554.6  2264.98
554.4  2257.44
554.2  2256.03
554  2175.7
553.8  2188.536
553.6  2208.11
553.4  2143.38
553.2  2108.35
553  2028.8
552.8  2008.06
552.6  1932.45
552.4  1950.61
552.2  1955.333
552  1876.31
551.8  1921.48
551.6  1874.48
551.4  1880.96
551.2  1838.34
551  1847.54
550.8  1858.05
550.6  1789.24
550.4  1823.48
550.2  1874.171
550  1877.26
549.8  1842.69
549.6  1834.21
549.4  1786.38
549.2  1821.78
549  1740.33
548.8  1823.499
548.6  1780.74
548.4  1660.135
548.2  1686.86
548  1668.18
547.8  1677.06
547.6  1618.7
547.4  1585.87
547.2  1610.72
547  1630.52
546.8  1535.951
546.6  1599.45
546.4  1586.01
546.2  1538.84
546  1541.92
545.8  1492.02
545.6  1459.67
545.4  1490.71
545.2  1386.15
545  1307.91
544.8  1254.719
544.6  1251.67
544.4  1226.93
544.2  1136.58
544  1081.55
543.8  1086.63
543.6  1040.33
543.4  966.684
543.2  999.869
543  920.188
542.8  972.136
542.6  989.545
542.4  921.699
542.2  981.962
542  904.6162
541.8  898.961
541.6  947.045
541.4  947.392
541.2  913.494
541  930.057
540.8  930.969
540.6  902.614
540.4  909.011
540.2  916.456
540  919.842
539.8  934.701
539.6  890.6055
539.4  936.145
539.2  907.031
539  905.886
538.8  894.0906
538.6  864.764
538.4  964.642
538.2  971.964
538  957.113
537.8  957.826
537.6  968.875
537.4  997.418
537.2  985.9854
537  1088.79
536.8  1101.9
536.6  1193.87
536.4  1351.84
536.2  1635.29
536  2094.447
535.8  2717.13
535.6  3888.76
535.4  5548.44
535.2  8193.3
535  11437.187
534.8  15382.149
534.6  19297.751
534.4  21829.347
534.2  22691.94
534  20678.951
533.8  17372.652
533.6  12668.519
533.4  8577.11
533.2  5469.29
533  3625.757
532.8  2518.48
532.6  1874.02
532.4  1624.47
532.2  1328.79
532  1229.97
531.8  1137.46
531.6  1049.59
531.4  1036.08
531.2  1002.8
531  912.92
530.8  949.439
530.6  910.648
530.4  927.1
530.2  867.011
530  877.7286
529.8  909.8335
529.6  875.101
529.4  867.04
529.2  869.092
529  820.347
528.8  882.408
528.6  866.324
528.4  866.115
528.2  805.325
528  806.237
527.8  811.916
527.6  870.471
527.4  835.887
527.2  809.93
527  805.4581
526.8  806.0613
526.6  831.806
526.4  854.763
526.2  838.474
526  807.632
525.8  813.537
525.6  789.286
525.4  824.542
525.2  817.365
525  828.267
524.8  799.996
524.6  815.684
524.4  797.433
524.2  808.728
524  811.524
523.8  820.804
523.6  835.517
523.4  846.253
523.2  779.233
523  806.258
522.8  834.279
522.6  820.809
522.4  797.49
522.2  814.957
522  829.525
521.8  785.938
521.6  789.05
521.4  822.054
521.2  848.085
521  827.509