File: SiO 9(Si).xy
# Created by:        SpecsLab Prodigy, Version 4.50.2-r79252
#
# XY-Serializer Export Settings:
#   Comment Prefix:           #
#   Output meta data:         yes
#   Energy Axis:              Binding Energy
#   Count Rate:               Counts per Second
#   Separate Scan Data:       no
#   Separate Channel Data:    no
#   External Channel Data:    yes
#   Transmission Function:    no
#   ErrorBar:                 no
#   Operation Results:        yes
#   Time Zone Format:         UTC
#
# Group:             Spectrum Group 5
#
# Region:            Si2p
# Acquisition Date:  10/25/19 17:41:46 UTC
# Analysis Method:   XPS
# Analyzer:          Phoibos
# Analyzer Lens:     MediumArea:1.5kV
# Analyzer Slit:     5:7x20\B:open
# Scan Mode:         FixedAnalyzerTransmission
# Curves/Scan:       1
# Values/Curve:      151
# Dwell Time:        0.1
# Excitation Energy: 1486.71
# Binding Energy:    110
# Pass Energy:       10
# Bias Voltage:      90
# Detector Voltage:  1900
# Eff. Workfunction: 4.395
# Source:            Focus
# Comment:
#
# Cycle: 0
# Number of Scans: 12
#
# Cycle: 0, Curve: 0
# Acquisition Date: 10/25/19 17:41:46 UTC
#
# ColumnLabels: energy counts/s
#
110  155.311
109.9  162.734
109.8  188.627
109.7  163.791
109.6  161.914
109.5  166.663
109.4  152.836
109.3  155.499
109.2  177.179
109.1  150.969
109  153.46
108.9  163.188
108.8  150.832
108.7  166.586
108.6  171.677
108.5  152.541
108.4  157.816
108.3  139.8177
108.2  154.8256
108.1  155.92
108  154.621
107.9  169.46
107.8  176.065
107.7  178.126
107.6  186.828
107.5  181.777
107.4  212.371
107.3  202.903
107.2  204.724
107.1  211.944
107  266.474
106.9  282.335
106.8  328.174
106.7  387.796
106.6  482.261
106.5  567.976
106.4  686.813
106.3  843.283
106.2  1040.33
106.1  1291.13
106  1522.4
105.9  1734.93
105.8  2064.39
105.7  2426.62
105.6  2850.18
105.5  3140.66
105.4  3484.805
105.3  3746.91
105.2  4009.55
105.1  4174.12
105  4174.41
104.9  4182.22
104.8  4101.4
104.7  3868.903
104.6  3653.35
104.5  3225.4
104.4  2893.15
104.3  2522.37
104.2  2048.09
104.1  1721.89
104  1409.27
103.9  1160.05
103.8  898.926
103.7  721.4885
103.6  528.663
103.5  471.629
103.4  410.883
103.3  340.145
103.2  325.012
103.1  315.002
103  280.3674
102.9  244.149
102.8  228.811
102.7  208.682
102.6  218.333
102.5  210.817
102.4  205.0935
102.3  195.335
102.2  176.404
102.1  172.347
102  178.93
101.9  175.388
101.8  185.9528
101.7  172.036
101.6  163.493
101.5  165.364
101.4  177.672
101.3  187.117
101.2  202.776
101.1  235.297
101  327.288
100.9  410.61
100.8  501.209
100.7  659.031
100.6  844.67
100.5  946.397
100.4  1087.86
100.3  1062.29
100.2  1039.53
100.1  1110.43
100  1330.916
99.9  1435.75
99.8  1386.4
99.7  1118.76
99.6  721.3953
99.5  385.201
99.4  221.106
99.3  149.2749
99.2  119.59
99.1  119.474
99  138.144
98.9  116.496
98.8  104.96
98.7  115.661
98.6  118.467
98.5  87.5969
98.4  90.0427
98.3  98.8186
98.2  98.693
98.1  107.972
98  102.175
97.9  97.8911
97.8  111.616
97.7  103.793
97.6  101.422
97.5  105.494
97.4  98.231
97.3  98.2348
97.2  112.647
97.1  105.336
97  98.4194
96.9  106.977
96.8  113.91
96.7  93.0984
96.6  107.532
96.5  103.846
96.4  88.3509
96.3  97.8008
96.2  103.451
96.1  90.4237
96  108.654
95.9  107.109
95.8  98.196
95.7  106.5148
95.6  102.642
95.5  104.642
95.4  99.44624
95.3  105.0335
95.2  109.4852
95.1  94.2486
95  107.049