File: SiO 18(Si).xy
# Created by:        SpecsLab Prodigy, Version 4.50.2-r79252
#
# XY-Serializer Export Settings:
#   Comment Prefix:           #
#   Output meta data:         yes
#   Energy Axis:              Binding Energy
#   Count Rate:               Counts per Second
#   Separate Scan Data:       no
#   Separate Channel Data:    no
#   External Channel Data:    yes
#   Transmission Function:    no
#   ErrorBar:                 no
#   Operation Results:        yes
#   Time Zone Format:         UTC
#
# Group:             Spectrum Group 35
#
# Region:            Si2p
# Acquisition Date:  10/25/19 18:52:19 UTC
# Analysis Method:   XPS
# Analyzer:          Phoibos
# Analyzer Lens:     MediumArea:1.5kV
# Analyzer Slit:     5:7x20\B:open
# Scan Mode:         FixedAnalyzerTransmission
# Curves/Scan:       1
# Values/Curve:      151
# Dwell Time:        0.1
# Excitation Energy: 1486.71
# Binding Energy:    110
# Pass Energy:       10
# Bias Voltage:      90
# Detector Voltage:  1900
# Eff. Workfunction: 4.395
# Source:            Focus
# Comment:
#
# Cycle: 0
# Number of Scans: 12
#
# Cycle: 0, Curve: 0
# Acquisition Date: 10/25/19 18:52:19 UTC
#
# ColumnLabels: energy counts/s
#
110  120.595
109.9  121.027
109.8  111.962
109.7  112.952
109.6  122.2695
109.5  104.174
109.4  102.651
109.3  106.516
109.2  124.353
109.1  105.082
109  105.2736
108.9  105.473
108.8  99.8889
108.7  103.767
108.6  103.805
108.5  112.915
108.4  113.7057
108.3  114.854
108.2  118.074
108.1  108.503
108  120.045
107.9  92.7006
107.8  114.681
107.7  114.047
107.6  120.435
107.5  99.3244
107.4  92.0398
107.3  124.838
107.2  142.091
107.1  141.507
107  140.075
106.9  145.148
106.8  167.32
106.7  219.77
106.6  244.734
106.5  277.001
106.4  318.929
106.3  397.861
106.2  509.2753
106.1  645.544
106  775.1252
105.9  978.923
105.8  1190.92
105.7  1421.31
105.6  1565.71
105.5  1854.94
105.4  2111.13
105.3  2345.2
105.2  2560
105.1  2715.95
105  2982.28
104.9  2968.72
104.8  2938.7
104.7  2922.81
104.6  2759.79
104.5  2545.71
104.4  2257.58
104.3  1987.7
104.2  1676.51
104.1  1413.79
104  1173.57
103.9  929.137
103.8  758.019
103.7  585.99
103.6  505.82
103.5  372.402
103.4  300.0229
103.3  296.065
103.2  258.152
103.1  211.509
103  187.4414
102.9  189.553
102.8  168.826
102.7  159.889
102.6  154.444
102.5  154.546
102.4  132.372
102.3  142.295
102.2  115.986
102.1  107.784
102  105.153
101.9  113.685
101.8  117.869
101.7  141.201
101.6  117.309
101.5  105.506
101.4  119.876
101.3  123.796
101.2  125.025
101.1  133.546
101  179.943
100.9  236.871
100.8  285.594
100.7  384.68
100.6  498.103
100.5  561.045
100.4  648.466
100.3  727.791
100.2  689.774
100.1  686.807
100  790.909
99.9  929.253
99.8  937.166
99.7  820.768
99.6  640.507
99.5  383.364
99.4  203.202
99.3  151.36
99.2  115.409
99.1  91.0132
99  90.8367
98.9  95.8354
98.8  86.3879
98.7  83.9819
98.6  81.3559
98.5  75.4198
98.4  71.9996
98.3  69.4956
98.2  65.2793
98.1  61.194
98  76.15977
97.9  74.6518
97.8  67.537
97.7  64.4588
97.6  65.6135
97.5  65.0912
97.4  71.4905
97.3  79.6691
97.2  64.1945
97.1  79.4787
97  66.2647
96.9  68.3998
96.8  73.5563
96.7  72.9378
96.6  65.4426
96.5  70.9105
96.4  68.9699
96.3  69.8312
96.2  73.13661
96.1  73.1428
96  65.0263
95.9  64.4609
95.8  74.4812
95.7  65.595
95.6  69.6165
95.5  72.8179
95.4  76.7314
95.3  72.9496
95.2  82.4114
95.1  81.6978
95  73.8258