File: SiOx.xy
# Created by:        SpecsLab Prodigy, Version 4.50.2-r79252
#
# XY-Serializer Export Settings:
#   Comment Prefix:           #
#   Output meta data:         yes
#   Energy Axis:              Binding Energy
#   Count Rate:               Counts per Second
#   Separate Scan Data:       no
#   Separate Channel Data:    no
#   External Channel Data:    yes
#   Transmission Function:    no
#   ErrorBar:                 no
#   Operation Results:        yes
#   Time Zone Format:         UTC
#
# Group:             Spectrum Group 0
#
# Region:            Survey
# Acquisition Date:  10/25/19 16:37:31 UTC
# Analysis Method:   XPS
# Analyzer:          Phoibos
# Analyzer Lens:     MediumArea:1.5kV
# Analyzer Slit:     5:7x20\B:open
# Scan Mode:         FixedAnalyzerTransmission
# Curves/Scan:       1
# Values/Curve:      1201
# Dwell Time:        0.1
# Excitation Energy: 1486.71
# Binding Energy:    1200
# Pass Energy:       50
# Bias Voltage:      90
# Detector Voltage:  1900
# Eff. Workfunction: 4.395
# Source:            Focus
# Comment:
#
# Cycle: 0
# Number of Scans: 1
#
# Cycle: 0, Curve: 0
# Acquisition Date: 10/25/19 16:37:31 UTC
#
# ColumnLabels: energy counts/s
#
1200  18360.107
1195  19253.325
1190  18496.682
1185  18716.738
1180  18927.509
1175  18256.031
1170  18705.269
1165  19198.063
1160  18650.022
1155  19794.157
1150  19027.902
1145  18297.569
1140  18801.509
1135  18848.676
1130  19394.174
1125  19226.371
1120  19672.229
1115  19747.197
1110  20812.509
1105  20374.267
1100  20248.7
1095  20018.662
1090  20542.622
1085  20780.166
1080  21089.047
1075  20882.062
1070  21320.962
1065  21997.001
1060  22430.163
1055  22708.688
1050  23519.753
1045  23111.535
1040  23383.362
1035  24291.838
1030  24886.284
1025  25374.741
1020  26639.581
1015  25360.977
1010  26206.818
1005  30166.395
1000  27144.554
995  24538.368
990  25019.907
985  34219.34
980  38480.534
975  20662.843
970  13161.155
965  11545.793
960  10819.268
955  10724.726
950  11011.147
945  10958.412
940  10887.66
935  11439.826
930  11345.263
925  11727.445
920  11532.319
915  11116.715
910  11621.827
905  12271.448
900  12127.234
895  12186.38
890  12422.083
885  12786.958
880  12719.116
875  13669.177
870  12225.653
865  13035.657
860  13277.183
855  13519.031
850  13401.766
845  13651.124
840  14085.971
835  13770.807
830  14145.639
825  14498.722
820  13846.843
815  14307.956
810  14916.176
805  15057.344
800  14972.411
795  14851.596
790  15120.767
785  15514.828
780  15754.077
775  16115.765
770  16515.437
765  16508.428
760  16299.643
755  16500.752
750  16548.454
745  17497.351
740  17146.49
735  16751.183
730  17987.293
725  18177.348
720  18575.563
715  18664.723
710  19947.773
705  18795.932
700  19257.9
695  19754.027
690  20682.55
685  20403.106
680  19971.7
675  20922.821
670  20794.693
665  21464.407
660  22079.521
655  22426.899
650  22442.839
645  22833.607
640  23857.561
635  24407.6
630  24255.849
625  24493.609
620  24972.87
615  25687.609
610  26497.698
605  25982.106
600  27252.594
595  27332.151
590  28934.603
585  29503.8
580  30135.146
575  29947.416
570  29442.989
565  31162.805
560  36583.453
555  36895.795
550  28112.605
545  20556.87
540  14077.08
535  172313.55
530  14005.41
525  12394.436
520  13137.11
515  12361.36
510  12819.807
505  13036.276
500  13323.817
495  13746.483
490  13140.154
485  13175.712
480  13157.222
475  13393.117
470  13047.284
465  12986.94
460  14294.579
455  13859.859
450  13652.09
445  13458.568
440  14241.451
435  13733.389
430  14381.09
425  14146.976
420  14642.603
415  14577
410  14340.696
405  13989.016
400  14796.482
395  14723.618
390  14510.811
385  14388.381
380  15420.029
375  14900.83
370  14045.839
365  14386.55
360  14620.264
355  14603.389
350  15050.152
345  15029.601
340  15237.318
335  15378.935
330  15588.227
325  15603.011
320  15183.856
315  15618.78
310  16316.761
305  15509.067
300  15485.007
295  15931.475
290  16373.061
285  19486.627
280  15592.501
275  15948.143
270  15849.092
265  15643.391
260  15378.504
255  16119.498
250  16378.606
245  16736.048
240  17498.659
235  16480.626
230  16330.142
225  16733.7
220  16699.831
215  16239.837
210  16189.782
205  17061.186
200  17243.457
195  16535.416
190  16963.153
185  17394.074
180  17076.417
175  17093.115
170  16797.316
165  12668.362
160  12576.317
155  39469.759
150  15196.164
145  9153.37
140  8972.09
135  8859.97
130  8816.17
125  9351.5
120  8561.3
115  5953.38
110  2908.99
105  53060.564
100  15673.543
95  1571.7
90  1584.65
85  1692.89
80  1592.92
75  1844.03
70  1983.96
65  1878.34
60  1875.06
55  2352.28
50  2437.59
45  1909.75
40  1807.01
35  1648.59
30  3259.07
25  4252.624
20  538.625
15  2107.24
10  1908.07
5  346.474
0  40.69169

# Region:            C1s
# Acquisition Date:  10/25/19 16:55:32 UTC
# Analysis Method:   XPS
# Analyzer:          Phoibos
# Analyzer Lens:     MediumArea:1.5kV
# Analyzer Slit:     5:7x20\B:open
# Scan Mode:         FixedAnalyzerTransmission
# Curves/Scan:       1
# Values/Curve:      71
# Dwell Time:        0.1
# Excitation Energy: 1486.71
# Binding Energy:    289
# Pass Energy:       10
# Bias Voltage:      90
# Detector Voltage:  1900
# Eff. Workfunction: 4.395
# Source:            Focus
# Comment:
#
# Cycle: 0
# Number of Scans: 12
#
# Cycle: 0, Curve: 0
# Acquisition Date: 10/25/19 16:55:32 UTC
#
# ColumnLabels: energy counts/s
#
289  1046.69
288.9  1078.87
288.8  1068
288.7  1057.01
288.6  1046.42
288.5  1168.77
288.4  1133.43
288.3  1123.98
288.2  1097.22
288.1  1120.765
288  1082.48
287.9  1149.5
287.8  1148.23
287.7  1180.44
287.6  1121.39
287.5  1191.83
287.4  1187.94
287.3  1183.349
287.2  1215.78
287.1  1258.32
287  1309.75
286.9  1370.18
286.8  1439.63
286.7  1513.063
286.6  1568.81
286.5  1659.8
286.4  1665.952
286.3  1704.35
286.2  1718.93
286.1  1750.4
286  1724.84
285.9  1715.11
285.8  1648.6
285.7  1574.58
285.6  1493.66
285.5  1447.36
285.4  1371.39
285.3  1332.37
285.2  1189.55
285.1  1171.63
285  1171.17
284.9  1101.65
284.8  1100.2
284.7  1054.67
284.6  972.284
284.5  988.774
284.4  1034.94
284.3  1040.39
284.2  1016.914
284.1  1042.71
284  1040.21
283.9  1013.17
283.8  1014.86
283.7  1019.01
283.6  1070.64
283.5  1044.8
283.4  1037.17
283.3  1050.404
283.2  1034.86
283.1  1045.08
283  1028.08
282.9  997.997
282.8  1011.18
282.7  1029.37
282.6  996.727
282.5  1029.18
282.4  1078.368
282.3  1081.56
282.2  1045.39
282.1  1039.34
282  1070.86

# Region:            O1s
# Acquisition Date:  10/25/19 17:06:56 UTC
# Analysis Method:   XPS
# Analyzer:          Phoibos
# Analyzer Lens:     MediumArea:1.5kV
# Analyzer Slit:     5:7x20\B:open
# Scan Mode:         FixedAnalyzerTransmission
# Curves/Scan:       1
# Values/Curve:      491
# Dwell Time:        0.1
# Excitation Energy: 1486.71
# Binding Energy:    570
# Pass Energy:       10
# Bias Voltage:      90
# Detector Voltage:  1900
# Eff. Workfunction: 4.395
# Source:            Focus
# Comment:
#
# Cycle: 0
# Number of Scans: 12
#
# Cycle: 0, Curve: 0
# Acquisition Date: 10/25/19 17:06:56 UTC
#
# ColumnLabels: energy counts/s
#
570  2373.78
569.8  2328.56
569.6  2344.6
569.4  2310.816
569.2  2307.49
569  2267.32
568.8  2256.47
568.6  2268.2
568.4  2293.21
568.2  2249.15
568  2272.2
567.8  2235.25
567.6  2232.25
567.4  2213.23
567.2  2246.8
567  2368.671
566.8  2344.99
566.6  2413.97
566.4  2483.34
566.2  2351.783
566  2404.49
565.8  2386.59
565.6  2345.73
565.4  2365.8
565.2  2456.45
565  2435.051
564.8  2407.55
564.6  2542.84
564.4  2517.32
564.2  2500.07
564  2510.59
563.8  2533.349
563.6  2604.51
563.4  2670.72
563.2  2601.72
563  2675.4
562.8  2740.47
562.6  2737.51
562.4  2659.36
562.2  2695.08
562  2674.65
561.8  2762.37
561.6  2811.14
561.4  2816.95
561.2  2860.919
561  2866.7
560.8  2813.63
560.6  2860.73
560.4  2748.272
560.2  2792.94
560  2931.27
559.8  2863.79
559.6  2866.54
559.4  2898.3
559.2  2849.7
559  2865.651
558.8  2911.524
558.6  2952.61
558.4  2892.75
558.2  2945.01
558  3008.18
557.8  3100.94
557.6  3033.21
557.4  3079
557.2  3060.03
557  3159.03
556.8  3145.14
556.6  3103.92
556.4  3203.75
556.2  3173.01
556  3094
555.8  3162.894
555.6  3004.31
555.4  2974.68
555.2  2889.26
555  2831.24
554.8  2777.66
554.6  2799.32
554.4  2772.96
554.2  2717.87
554  2711.691
553.8  2667.46
553.6  2597.53
553.4  2582.39
553.2  2581.93
553  2465.739
552.8  2413.43
552.6  2402.86
552.4  2370.79
552.2  2328.12
552  2392.09
551.8  2295.91
551.6  2275.82
551.4  2216.94
551.2  2298.54
551  2198.89
550.8  2223.13
550.6  2217.19
550.4  2309.29
550.2  2257.14
550  2191.094
549.8  2234.35
549.6  2212.4
549.4  2137.581
549.2  2175.83
549  2158.302
548.8  2080.19
548.6  2120.89
548.4  2115.41
548.2  2086.77
548  2010.73
547.8  1959.51
547.6  2021.6
547.4  1919.076
547.2  1971.59
547  1839.17
546.8  1878.98
546.6  1904.51
546.4  1860.37
546.2  1845.6
546  1801.94
545.8  1755.4
545.6  1779.58
545.4  1695.24
545.2  1705.02
545  1654.4
544.8  1488.172
544.6  1499.22
544.4  1406.04
544.2  1425.56
544  1360.6
543.8  1295.5
543.6  1248.35
543.4  1251.17
543.2  1188.64
543  1149.819
542.8  1151.77
542.6  1156.87
542.4  1141.18
542.2  1135.57
542  1113.3
541.8  1113.62
541.6  1085.08
541.4  1120.82
541.2  1065.53
541  1116.61
540.8  1105.96
540.6  1075.686
540.4  1126.81
540.2  1140.58
540  1087.21
539.8  1086.51
539.6  1082.55
539.4  1093.23
539.2  1073.48
539  1148.35
538.8  1109.175
538.6  1129.99
538.4  1082.39
538.2  1178.5
538  1168.298
537.8  1134.303
537.6  1159.38
537.4  1185.41
537.2  1249.98
537  1267.372
536.8  1317.9
536.6  1366.267
536.4  1605.6
536.2  1896.628
536  2483.39
535.8  3427.406
535.6  4881.05
535.4  7305.23
535.2  10558.223
535  15106.834
534.8  19906.969
534.6  24638.344
534.4  27569.588
534.2  27376.089
534  24522.096
533.8  19276.676
533.6  13920.986
533.4  9188.91
533.2  5882.36
533  3899.179
532.8  2888.23
532.6  2288.5
532.4  1862.19
532.2  1660.18
532  1542.71
531.8  1412.501
531.6  1318.87
531.4  1275.1
531.2  1205.66
531  1168.96
530.8  1150.33
530.6  1053.309
530.4  1081.56
530.2  1094.59
530  1083.96
529.8  1056.57
529.6  1057.16
529.4  1044.08
529.2  1011.8
529  990.055
528.8  1002.57
528.6  1002.233
528.4  1039.43
528.2  1009.17
528  1035.27
527.8  1021.8
527.6  968.631
527.4  998.039
527.2  956.775
527  1008.2
526.8  942.309
526.6  937.342
526.4  1001.25
526.2  999.142
526  945.133
525.8  959.263
525.6  963.631
525.4  966.682
525.2  999.987
525  1008.66
524.8  976.37
524.6  983.177
524.4  965.099
524.2  972.716
524  968.411
523.8  959.838
523.6  1009.09
523.4  988.202
523.2  962.658
523  1000.21
522.8  987.881
522.6  981.6816
522.4  982.652
522.2  955.27
522  996.074
521.8  953.648
521.6  964.03
521.4  966.6134
521.2  952.297
521  973.377

# Region:            Si2p
# Acquisition Date:  10/25/19 17:10:45 UTC
# Analysis Method:   XPS
# Analyzer:          Phoibos
# Analyzer Lens:     MediumArea:1.5kV
# Analyzer Slit:     5:7x20\B:open
# Scan Mode:         FixedAnalyzerTransmission
# Curves/Scan:       1
# Values/Curve:      151
# Dwell Time:        0.1
# Excitation Energy: 1486.71
# Binding Energy:    110
# Pass Energy:       10
# Bias Voltage:      90
# Detector Voltage:  1900
# Eff. Workfunction: 4.395
# Source:            Focus
# Comment:
#
# Cycle: 0
# Number of Scans: 12
#
# Cycle: 0, Curve: 0
# Acquisition Date: 10/25/19 17:10:45 UTC
#
# ColumnLabels: energy counts/s
#
110  188.945
109.9  177.468
109.8  172.2697
109.7  183.703
109.6  169.421
109.5  174.547
109.4  163.533
109.3  168.344
109.2  157.305
109.1  181.176
109  171.673
108.9  171.775
108.8  158.031
108.7  173.97
108.6  167.52
108.5  170.094
108.4  176.672
108.3  177.743
108.2  175.202
108.1  178.864
108  165.34
107.9  177.18
107.8  159.866
107.7  152.043
107.6  184.704
107.5  173.061
107.4  206.521
107.3  195.161
107.2  214.411
107.1  248.169
107  259.414
106.9  288.39
106.8  335.988
106.7  374.781
106.6  450.215
106.5  528.007
106.4  660.2295
106.3  794.666
106.2  1015.53
106.1  1205.31
106  1489.26
105.9  1760.09
105.8  2109.4
105.7  2450.11
105.6  2797.11
105.5  3058.25
105.4  3528.837
105.3  3806.975
105.2  4038.91
105.1  4226.72
105  4337.21
104.9  4261
104.8  4188.5
104.7  4031.05
104.6  3712.31
104.5  3374.23
104.4  3005.44
104.3  2564.11
104.2  2208.669
104.1  1836.7
104  1516.72
103.9  1192.08
103.8  912.271
103.7  747.2476
103.6  587.9145
103.5  517.781
103.4  453.382
103.3  398.46
103.2  326.94
103.1  316.944
103  273.659
102.9  243.169
102.8  226.619
102.7  213.135
102.6  233.573
102.5  218.156
102.4  186.94
102.3  184.12
102.2  201.679
102.1  195.393
102  195.182
101.9  196.229
101.8  182.829
101.7  200.556
101.6  176.809
101.5  181.129
101.4  186.475
101.3  195.266
101.2  215.229
101.1  250.344
101  292.886
100.9  406.612
100.8  517.46
100.7  701.338
100.6  907.148
100.5  1106.21
100.4  1167.41
100.3  1122.23
100.2  1143.64
100.1  1280.7
100  1486.06
99.9  1682.38
99.8  1654.52
99.7  1352.65
99.6  906.045
99.5  531.577
99.4  263.498
99.3  181.31
99.2  163.677
99.1  142.485
99  127.653
98.9  133.184
98.8  123.756
98.7  116.266
98.6  110.835
98.5  113.338
98.4  133.156
98.3  107.191
98.2  92.4407
98.1  114.497
98  103.653
97.9  107.12
97.8  107.5879
97.7  114.949
97.6  114.968
97.5  106.02
97.4  110.45
97.3  107.412
97.2  103.049
97.1  117.54
97  109.59
96.9  96.1498
96.8  101.502
96.7  123.65
96.6  101.821
96.5  109.937
96.4  111.042
96.3  116.024
96.2  109.212
96.1  107.073
96  94.8259
95.9  120.473
95.8  121.238
95.7  115.764
95.6  109.998
95.5  115.464
95.4  102.27
95.3  94.6544
95.2  94.15432
95.1  107.742
95  95.7234

# Group:             Ajuste altura
#
# Group:             Spectrum Group 5
#
# Region:            C1s
# Acquisition Date:  10/25/19 17:26:35 UTC
# Analysis Method:   XPS
# Analyzer:          Phoibos
# Analyzer Lens:     MediumArea:1.5kV
# Analyzer Slit:     5:7x20\B:open
# Scan Mode:         FixedAnalyzerTransmission
# Curves/Scan:       1
# Values/Curve:      71
# Dwell Time:        0.1
# Excitation Energy: 1486.71
# Binding Energy:    289
# Pass Energy:       10
# Bias Voltage:      90
# Detector Voltage:  1900
# Eff. Workfunction: 4.395
# Source:            Focus
# Comment:
#
# Cycle: 0
# Number of Scans: 12
#
# Cycle: 0, Curve: 0
# Acquisition Date: 10/25/19 17:26:35 UTC
#
# ColumnLabels: energy counts/s
#
289  1014.98
288.9  987.49
288.8  988.0005
288.7  967.569
288.6  1031.12
288.5  1043.04
288.4  1025.5
288.3  1034.38
288.2  1049.12
288.1  1006.11
288  1046.09
287.9  1023.416
287.8  1047.65
287.7  1082.85
287.6  1079.7
287.5  1090.27
287.4  1104.12
287.3  1132.92
287.2  1205.91
287.1  1182.92
287  1264.75
286.9  1263.41
286.8  1316.43
286.7  1390.94
286.6  1445.42
286.5  1467.59
286.4  1515.11
286.3  1545.404
286.2  1615.18
286.1  1602.84
286  1607.65
285.9  1556.22
285.8  1530.96
285.7  1493.36
285.6  1443.991
285.5  1352.95
285.4  1337.87
285.3  1235.04
285.2  1152.94
285.1  1144.16
285  1158.201
284.9  1085.98
284.8  1042.44
284.7  1047.06
284.6  994.699
284.5  986.183
284.4  994.014
284.3  946.813
284.2  987.542
284.1  953.224
284  948.267
283.9  967.634
283.8  984.909
283.7  991.645
283.6  968.033
283.5  971.967
283.4  998.453
283.3  1007.95
283.2  967.222
283.1  931.52
283  970.699
282.9  1009.89
282.8  943.973
282.7  973.803
282.6  958.852
282.5  956.488
282.4  945.533
282.3  977.06
282.2  941.072
282.1  909.678
282  985.7748

# Region:            O1s
# Acquisition Date:  10/25/19 17:37:58 UTC
# Analysis Method:   XPS
# Analyzer:          Phoibos
# Analyzer Lens:     MediumArea:1.5kV
# Analyzer Slit:     5:7x20\B:open
# Scan Mode:         FixedAnalyzerTransmission
# Curves/Scan:       1
# Values/Curve:      491
# Dwell Time:        0.1
# Excitation Energy: 1486.71
# Binding Energy:    570
# Pass Energy:       10
# Bias Voltage:      90
# Detector Voltage:  1900
# Eff. Workfunction: 4.395
# Source:            Focus
# Comment:
#
# Cycle: 0
# Number of Scans: 12
#
# Cycle: 0, Curve: 0
# Acquisition Date: 10/25/19 17:37:58 UTC
#
# ColumnLabels: energy counts/s
#
570  2193.96
569.8  2270.79
569.6  2227.64
569.4  2138.37
569.2  2239.83
569  2145.46
568.8  2269.42
568.6  2221.68
568.4  2175.67
568.2  2162.72
568  2149.31
567.8  2236.233
567.6  2219.09
567.4  2185.44
567.2  2194.05
567  2224.721
566.8  2259.45
566.6  2293.14
566.4  2223.665
566.2  2303.98
566  2304.74
565.8  2289.63
565.6  2303.09
565.4  2306.42
565.2  2388.99
565  2351.56
564.8  2379.87
564.6  2428.8
564.4  2379.462
564.2  2458.81
564  2437.38
563.8  2548.32
563.6  2530.86
563.4  2435.61
563.2  2554.34
563  2486.83
562.8  2537.67
562.6  2605.93
562.4  2589.48
562.2  2628.1
562  2633.35
561.8  2598.76
561.6  2671.95
561.4  2573.11
561.2  2718.88
561  2657.78
560.8  2785.54
560.6  2595.12
560.4  2743.75
560.2  2792.99
560  2759.84
559.8  2711.9
559.6  2787.74
559.4  2872.39
559.2  2762.31
559  2850.2
558.8  2819.81
558.6  2786.145
558.4  2838.97
558.2  2802.12
558  2862.21
557.8  2959.142
557.6  2866.23
557.4  2967.41
557.2  2903.98
557  3039.27
556.8  2969.66
556.6  3056.767
556.4  2975.43
556.2  2965.5
556  2932.19
555.8  2867.8
555.6  2865.48
555.4  2833.77
555.2  2760.18
555  2725.19
554.8  2709.91
554.6  2793.71
554.4  2618.64
554.2  2594.46
554  2564.14
553.8  2506.07
553.6  2472.66
553.4  2380.23
553.2  2366.82
553  2353.43
552.8  2287.303
552.6  2253.23
552.4  2273.85
552.2  2205.57
552  2253.99
551.8  2266.77
551.6  2205.95
551.4  2121.28
551.2  2165.081
551  2161.91
550.8  2087.44
550.6  2097
[...]
# Analyzer Lens:     MediumArea:1.5kV
# Analyzer Slit:     5:7x20\B:open
# Scan Mode:         FixedAnalyzerTransmission
# Curves/Scan:       1
# Values/Curve:      71
# Dwell Time:        0.1
# Excitation Energy: 1486.71
# Binding Energy:    289
# Pass Energy:       10
# Bias Voltage:      90
# Detector Voltage:  1900
# Eff. Workfunction: 4.395
# Source:            Focus
# Comment:
#
# Cycle: 0
# Number of Scans: 12
#
# Cycle: 0, Curve: 0
# Acquisition Date: 10/25/19 19:38:18 UTC
#
# ColumnLabels: energy counts/s
#
289  448.661
288.9  441.562
288.8  448.126
288.7  448.254
288.6  414.249
288.5  420.565
288.4  439.539
288.3  417.13
288.2  445.355
288.1  450.42
288  438.018
287.9  435.3308
287.8  444.39
287.7  459.054
287.6  466.634
287.5  488.444
287.4  500.856
287.3  507.614
287.2  492.551
287.1  530.433
287  566.05
286.9  577.911
286.8  640.686
286.7  684.525
286.6  715.313
286.5  741.131
286.4  780.01
286.3  790.598
286.2  797.7758
286.1  785.02
286  810.218
285.9  754.762
285.8  777.284
285.7  738.102
285.6  664.46
285.5  619.692
285.4  603.894
285.3  601.834
285.2  521.523
285.1  521.985
285  509.235
284.9  484.541
284.8  455.0161
284.7  463.849
284.6  419.9802
284.5  404.523
284.4  447.369
284.3  419.854
284.2  434.758
284.1  407.979
284  420.8654
283.9  424.408
283.8  394.098
283.7  402.356
283.6  418.6153
283.5  439.741
283.4  403.104
283.3  414.899
283.2  406.2547
283.1  410.729
283  410.443
282.9  433.559
282.8  426.805
282.7  408.095
282.6  410.008
282.5  410.483
282.4  401.036
282.3  401.8568
282.2  427.114
282.1  401.03
282  402.268

# Region:            O1s
# Acquisition Date:  10/25/19 19:49:46 UTC
# Analysis Method:   XPS
# Analyzer:          Phoibos
# Analyzer Lens:     MediumArea:1.5kV
# Analyzer Slit:     5:7x20\B:open
# Scan Mode:         FixedAnalyzerTransmission
# Curves/Scan:       1
# Values/Curve:      491
# Dwell Time:        0.1
# Excitation Energy: 1486.71
# Binding Energy:    570
# Pass Energy:       10
# Bias Voltage:      90
# Detector Voltage:  1900
# Eff. Workfunction: 4.395
# Source:            Focus
# Comment:
#
# Cycle: 0
# Number of Scans: 12
#
# Cycle: 0, Curve: 0
# Acquisition Date: 10/25/19 19:49:46 UTC
#
# ColumnLabels: energy counts/s
#
570  969.377
569.8  1003.5
569.6  1024.96
569.4  986.184
569.2  995.874
569  1036.72
568.8  1018.58
568.6  1007.79
568.4  993.023
568.2  981.236
568  1010.68
567.8  998.214
567.6  992.893
567.4  1009.1
567.2  988.177
567  1009.7
566.8  1035.09
566.6  1044.24
566.4  1046.45
566.2  1025.79
566  1071.608
565.8  1083.62
565.6  1060.369
565.4  1034.44
565.2  1043.19
565  1078.41
564.8  1069.4
564.6  1110.05
564.4  1044.81
564.2  1106.23
564  1095.64
563.8  1119.854
563.6  1090.18
563.4  1156.76
563.2  1133.53
563  1158.97
562.8  1138.61
562.6  1186.19
562.4  1186.05
562.2  1163.89
562  1223.806
561.8  1245.94
561.6  1230.59
561.4  1240.823
561.2  1193.28
561  1233.67
560.8  1243.21
560.6  1259.25
560.4  1251.75
560.2  1276.12
560  1225.91
559.8  1298.99
559.6  1276.43
559.4  1239.76
559.2  1292.49
559  1240.79
558.8  1233.06
558.6  1295.92
558.4  1260.13
558.2  1330.02
558  1296.045
557.8  1338.74
557.6  1329.98
557.4  1368.55
557.2  1339.6
557  1373.14
556.8  1386.03
556.6  1389.229
556.4  1409.58
556.2  1378.66
556  1397.08
555.8  1318.63
555.6  1350.91
555.4  1266.82
555.2  1288.19
555  1268.11
554.8  1232.12
554.6  1197.14
554.4  1204.6
554.2  1208.22
554  1183.51
553.8  1183.32
553.6  1111.33
553.4  1096.21
553.2  1087.86
553  1016.24
552.8  1077.6
552.6  1021.69
552.4  1031.63
552.2  1047.16
552  985.991
551.8  1007.41
551.6  989.182
551.4  956.728
551.2  978.544
551  997.146
550.8  967.247
550.6  900.71
550.4  923.139
550.2  959.069
550  960.755
549.8  920.779
549.6  966.757
549.4  911.875
549.2  945.388
549  926.8
548.8  912.0784
548.6  930.703
548.4  907.65
548.2  871.138
548  842.4235
547.8  870.3375
547.6  851.333
547.4  831.767
547.2  847.2082
547  819.728
546.8  860.311
546.6  801.191
546.4  732.68
546.2  770.484
546  771.806
545.8  773.338
545.6  756.89
545.4  723.5969
545.2  689.861
545  694.876
544.8  649.2882
544.6  575.1184
544.4  588.238
544.2  553.502
544  523.756
543.8  520.528
543.6  515.377
543.4  500.151
543.2  477.932
543  451.54
542.8  459.047
542.6  464.343
542.4  444.571
542.2  417.565
542  428.421
541.8  440.957
541.6  408.104
541.4  396.383
541.2  398.5736
541  431.795
540.8  428.251
540.6  405.127
540.4  438.195
540.2  427.396
540  438.4517
539.8  417.348
539.6  424.601
539.4  391.982
539.2  425.8145
539  417.706
538.8  413.1
538.6  465.531
538.4  442.527
538.2  396.614
538  457.333
537.8  428.846
537.6  455.743
537.4  462.581
537.2  474.247
537  469.63
536.8  523.809
536.6  581.698
536.4  617.175
536.2  731.906
536  969.446
535.8  1332.57
535.6  1971.89
535.4  3022.82
535.2  4645.71
535  6555.266
534.8  8928.92
534.6  11035.55
534.4  12173.969
534.2  12017.274
534  10417.279
533.8  8240.1
533.6  5682.3
533.4  3574.22
533.2  2336.94
533  1497.19
532.8  1032.33
532.6  830.872
532.4  731.9161
532.2  652.321
532  582.284
531.8  552.876
531.6  502.3397
531.4  483.606
531.2  496.147
531  449.925
530.8  419.1181
530.6  431.318
530.4  392.245
530.2  440.5884
530  420.385
529.8  427.603
529.6  425.858
529.4  386.118
529.2  377.769
529  401.159
528.8  383.665
528.6  372.431
528.4  387.722
528.2  377.212
528  408.544
527.8  375.263
527.6  380.848
527.4  391.216
527.2  386.8094
527  365.277
526.8  391.3093
526.6  367.9963
526.4  377.897
526.2  367.119
526  366.155
525.8  385.702
525.6  404.335
525.4  379.655
525.2  373.595
525  392.564
524.8  369.147
524.6  377.12
524.4  353.548
524.2  385.735
524  368.1044
523.8  365.244
523.6  362.232
523.4  355.214
523.2  396.633
523  353.669
522.8  375.384
522.6  350.28
522.4  389.981
522.2  361.065
522  356.668
521.8  381.387
521.6  350.143
521.4  367.697
521.2  385.79
521  382.413

# Region:            Si2p
# Acquisition Date:  10/25/19 19:53:36 UTC
# Analysis Method:   XPS
# Analyzer:          Phoibos
# Analyzer Lens:     MediumArea:1.5kV
# Analyzer Slit:     5:7x20\B:open
# Scan Mode:         FixedAnalyzerTransmission
# Curves/Scan:       1
# Values/Curve:      151
# Dwell Time:        0.1
# Excitation Energy: 1486.71
# Binding Energy:    110
# Pass Energy:       10
# Bias Voltage:      90
# Detector Voltage:  1900
# Eff. Workfunction: 4.395
# Source:            Focus
# Comment:
#
# Cycle: 0
# Number of Scans: 12
#
# Cycle: 0, Curve: 0
# Acquisition Date: 10/25/19 19:53:36 UTC
#
# ColumnLabels: energy counts/s
#
110  78.48925
109.9  70.8577
109.8  58.305
109.7  78.7499
109.6  70.3195
109.5  76.6218
109.4  70.9672
109.3  89.2787
109.2  80.1305
109.1  66.4401
109  61.4052
108.9  79.14505
108.8  76.1308
108.7  75.8255
108.6  68.7875
108.5  81.2129
108.4  73.9668
108.3  71.80234
108.2  78.3126
108.1  68.1291
108  73.20728
107.9  66.4506
107.8  70.7282
107.7  74.9579
107.6  77.9812
107.5  89.095
107.4  91.8634
107.3  78.4776
107.2  81.9944
107.1  101.332
107  92.2425
106.9  103.761
106.8  127.826
106.7  171.752
106.6  189.595
106.5  233.49
106.4  280.164
106.3  380.497
106.2  426.585
106.1  559.845
106  669.816
105.9  797.493
105.8  1009.84
105.7  1194.97
105.6  1387.784
105.5  1608.53
105.4  1721.4
105.3  1935.04
105.2  2064.58
105.1  2140.35
105  2154.67
104.9  2202.14
104.8  2029.54
104.7  2001.95
104.6  1913.32
104.5  1676.48
104.4  1500.06
104.3  1249.34
104.2  1068.07
104.1  851.9438
104  677.012
103.9  524.044
103.8  445.932
103.7  348.459
103.6  305.016
103.5  236.889
103.4  216.377
103.3  174.333
103.2  164.85
103.1  146.717
103  138.71
102.9  123.112
102.8  105.154
102.7  110.966
102.6  101.5223
102.5  96.2512
102.4  90.2665
102.3  83.4016
102.2  82.69966
102.1  75.1529
102  81.5073
101.9  66.87604
101.8  73.6794
101.7  82.8927
101.6  76.7793
101.5  89.6022
101.4  73.7994
101.3  75.1093
101.2  94.5256
101.1  95.2176
101  98.8905
100.9  113.18
100.8  140.732
100.7  198.662
100.6  224.75
100.5  262.6063
100.4  257.158
100.3  230.017
100.2  255.714
100.1  276.6006
100  336.336
99.9  334.048
99.8  283.255
99.7  234.377
99.6  165.393
99.5  104.5854
99.4  59.9379
99.3  53.24484
99.2  68.7711
99.1  61.7196
99  66.9371
98.9  54.3459
98.8  67.8888
98.7  57.3723
98.6  51.5002
98.5  53.22946
98.4  50.7915
98.3  56.5952
98.2  65.2355
98.1  56.50285
98  63.8609
97.9  61.4989
97.8  49.4994
97.7  57.9963
97.6  55.1051
97.5  58.62565
97.4  64.1866
97.3  61.9442
97.2  53.2578
97.1  56.4257
97  53.08939
96.9  54.6706
96.8  54.0682
96.7  66.8419
96.6  65.0505
96.5  67.35
96.4  56.634
96.3  54.5875
96.2  61.4224
96.1  59.966
96  61.5301
95.9  53.85092
95.8  62.4483
95.7  61.5392
95.6  57.5105
95.5  57.8682
95.4  53.7051
95.3  51.5765
95.2  51.1631
95.1  55.4486
95  60.1008