File: Silicio2p/OxidoInfinito/OxidoInfinito_single 21.xy
# Created by:        SpecsLab Prodigy, Version 4.50.2-r79252
#
# XY-Serializer Export Settings:
#   Comment Prefix:           #
#   Output meta data:         yes
#   Energy Axis:              Binding Energy
#   Count Rate:               Counts per Second
#   Separate Scan Data:       no
#   Separate Channel Data:    no
#   External Channel Data:    yes
#   Transmission Function:    no
#   ErrorBar:                 no
#   Operation Results:        yes
#   Time Zone Format:         UTC
#
# Group:             Spectrum Group 45
#
# Region:            Si2p
# Acquisition Date:  10/31/19 01:51:19 UTC
# Analysis Method:   XPS
# Analyzer:          Phoibos
# Analyzer Lens:     MediumArea:1.5kV
# Analyzer Slit:     5:7x20\B:open
# Scan Mode:         FixedAnalyzerTransmission
# Curves/Scan:       1
# Values/Curve:      161
# Dwell Time:        0.1
# Excitation Energy: 1486.71
# Binding Energy:    108
# Pass Energy:       10
# Bias Voltage:      90
# Detector Voltage:  1900
# Eff. Workfunction: 4.395
# Source:            Focus
# Comment:
#
# Cycle: 0
# Number of Scans: 15
#
# Cycle: 0, Curve: 0
# Acquisition Date: 10/31/19 01:51:19 UTC
#
# ColumnLabels: energy counts/s
#
108  82.63428
107.9  72.4583
107.8  74.2693
107.7  66.9474
107.6  78.7752
107.5  83.18505
107.4  87.2198
107.3  79.7011
107.2  74.491
107.1  75.446
107  63.7081
106.9  81.0833
106.8  74.71569
106.7  74.3307
106.6  80.008
106.5  80.7468
106.4  74.7445
106.3  75.5083
106.2  82.3335
106.1  98.8122
106  111.397
105.9  104.7835
105.8  121.463
105.7  154.606
105.6  181.0296
105.5  207.257
105.4  270.574
105.3  340.191
105.2  430.5
105.1  514.468
105  603.015
104.9  728.575
104.8  843.538
104.7  941.512
104.6  1032.33
104.5  1090.16
104.4  1152.65
104.3  1259.46
104.2  1277.11
104.1  1247.64
104  1221.58
103.9  1216.92
103.8  1183.11
103.7  1074.48
103.6  989.616
103.5  878.323
103.4  784.3
103.3  773.474
103.2  735.791
103.1  701.8833
103  676.081
102.9  634.243
102.8  642.325
102.7  630.242
102.6  603.641
102.5  564.442
102.4  552.338
102.3  492.9458
102.2  416.95
102.1  335.0967
102  265.824
101.9  217.957
101.8  178.495
101.7  138.4675
101.6  118.5452
101.5  107.682
101.4  83.4358
101.3  90.3322
101.2  104.156
101.1  76.043
101  75.8556
100.9  80.3213
100.8  82.7205
100.7  68.8938
100.6  73.7451
100.5  85.40673
100.4  72.598
100.3  60.70354
100.2  71.0715
100.1  68.0537
100  60.9687
99.9  88.5188
99.8  75.6421
99.7  77.4392
99.6  80.6472
99.5  73.7276
99.4  55.8092
99.3  72.2254
99.2  69.6469
99.1  64.2017
99  68.7623
98.9  77.6184
98.8  69.473
98.7  79.4486
98.6  72.6226
98.5  69.0689
98.4  58.8196
98.3  67.77152
98.2  72.0334
98.1  72.4048
98  64.791
97.9  77.4428
97.8  60.4449
97.7  71.898
97.6  77.20497
97.5  69.10582
97.4  76.922
97.3  73.4019
97.2  73.157
97.1  74.0113
97  86.8493
96.9  68.8403
96.8  66.6449
96.7  62.4286
96.6  64.7196
96.5  74.2307
96.4  65.6924
96.3  67.7791
96.2  72.2742
96.1  76.0738
96  75.5915
95.9  66.6752
95.8  71.0549
95.7  69.417
95.6  73.8168
95.5  68.3763
95.4  69.6178
95.3  61.3861
95.2  66.7334
95.1  74.569
95  61.2252
94.9  72.5724
94.8  71.7656
94.7  71.4608
94.6  70.9977
94.5  69.4271
94.4  69.6078
94.3  54.9492
94.2  61.2018
94.1  67.1861
94  69.2541
93.9  74.995
93.8  65.6893
93.7  73.219
93.6  74.5753
93.5  69.8198
93.4  70.1094
93.3  54.66658
93.2  60.4052
93.1  72.8214
93  69.8005
92.9  79.5567
92.8  77.8745
92.7  73.6196
92.6  68.5528
92.5  75.53901
92.4  69.7175
92.3  65.587
92.2  70.4004
92.1  69.2999
92  61.9426