File: Silicio2p/OxidoInfinito/OxidoInfinito_single 15.xy
# Created by:        SpecsLab Prodigy, Version 4.50.2-r79252
#
# XY-Serializer Export Settings:
#   Comment Prefix:           #
#   Output meta data:         yes
#   Energy Axis:              Binding Energy
#   Count Rate:               Counts per Second
#   Separate Scan Data:       no
#   Separate Channel Data:    no
#   External Channel Data:    yes
#   Transmission Function:    no
#   ErrorBar:                 no
#   Operation Results:        yes
#   Time Zone Format:         UTC
#
# Group:             Spectrum Group 25
#
# Region:            Si2p
# Acquisition Date:  10/31/19 01:14:41 UTC
# Analysis Method:   XPS
# Analyzer:          Phoibos
# Analyzer Lens:     MediumArea:1.5kV
# Analyzer Slit:     5:7x20\B:open
# Scan Mode:         FixedAnalyzerTransmission
# Curves/Scan:       1
# Values/Curve:      161
# Dwell Time:        0.1
# Excitation Energy: 1486.71
# Binding Energy:    108
# Pass Energy:       10
# Bias Voltage:      90
# Detector Voltage:  1900
# Eff. Workfunction: 4.395
# Source:            Focus
# Comment:
#
# Cycle: 0
# Number of Scans: 15
#
# Cycle: 0, Curve: 0
# Acquisition Date: 10/31/19 01:14:41 UTC
#
# ColumnLabels: energy counts/s
#
108  106.191
107.9  112.026
107.8  108.603
107.7  108.733
107.6  106.106
107.5  107.885
107.4  116.524
107.3  117.686
107.2  105.151
107.1  106.127
107  99.8184
106.9  95.1636
106.8  107.9911
106.7  115.42
106.6  115.928
106.5  105.3144
106.4  110.203
106.3  118.895
106.2  150.174
106.1  163.106
106  152.953
105.9  186.445
105.8  210.015
105.7  262.205
105.6  322.346
105.5  398.996
105.4  517.963
105.3  632.709
105.2  745.911
105.1  917.858
105  1104.16
104.9  1325.473
104.8  1555.49
104.7  1768.9
104.6  1978.73
104.5  2142.61
104.4  2275.517
104.3  2392.15
104.2  2366.64
104.1  2292.21
104  2365.139
103.9  2200.91
103.8  2050.86
103.7  1851.07
103.6  1654.74
103.5  1425.08
103.4  1272.68
103.3  1161.19
103.2  1048.73
103.1  954.5239
103  913.679
102.9  887.658
102.8  816.919
102.7  886.835
102.6  851.619
102.5  766.259
102.4  695.992
102.3  641.566
102.2  526.47
102.1  446.088
102  361.627
101.9  281.704
101.8  226.556
101.7  197.663
101.6  157.639
101.5  142.524
101.4  127.918
101.3  123.614
101.2  120.855
101.1  109.63
101  100.44
100.9  106.278
100.8  115.196
100.7  112.2
100.6  104.368
100.5  109.005
100.4  125.537
100.3  114.301
100.2  115.238
100.1  111.0522
100  101.9823
99.9  119.327
99.8  117.967
99.7  107.442
99.6  117.551
99.5  101.774
99.4  94.62379
99.3  91.6331
99.2  107.136
99.1  104.4886
99  113.111
98.9  98.9473
98.8  97.3575
98.7  89.4711
98.6  96.2647
98.5  103.451
98.4  102.079
98.3  110.033
98.2  109.573
98.1  93.2755
98  99.1712
97.9  101.084
97.8  92.7947
97.7  90.3961
97.6  98.886
97.5  101.907
97.4  106.1383
97.3  109.65
97.2  91.3977
97.1  103.842
97  105.466
96.9  110.8888
96.8  103.38
96.7  98.3002
96.6  103.882
96.5  95.0675
96.4  85.8248
96.3  100.163
96.2  99.8696
96.1  89.3833
96  95.9651
95.9  105.229
95.8  104.16
95.7  98.1178
95.6  96.3445
95.5  97.4442
95.4  94.4853
95.3  95.4334
95.2  99.8017
95.1  103.791
95  99.9139
94.9  98.9366
94.8  99.8532
94.7  103.811
94.6  106.545
94.5  106.5795
94.4  89.4557
94.3  112.989
94.2  104.692
94.1  105.7127
94  88.99464
93.9  90.6906
93.8  107.403
93.7  107.873
93.6  96.0915
93.5  109.209
93.4  109.85
93.3  93.1449
93.2  82.9919
93.1  89.6748
93  108.4496
92.9  110.748
92.8  100.7489
92.7  97.6224
92.6  97.8989
92.5  99.3826
92.4  92.4024
92.3  107.406
92.2  105.4354
92.1  113.36
92  107.515