File: Silicio2p/OxidoInfinito/OxidoInfinito_single 12.xy
# Created by:        SpecsLab Prodigy, Version 4.50.2-r79252
#
# XY-Serializer Export Settings:
#   Comment Prefix:           #
#   Output meta data:         yes
#   Energy Axis:              Binding Energy
#   Count Rate:               Counts per Second
#   Separate Scan Data:       no
#   Separate Channel Data:    no
#   External Channel Data:    yes
#   Transmission Function:    no
#   ErrorBar:                 no
#   Operation Results:        yes
#   Time Zone Format:         UTC
#
# Group:             Spectrum Group 15
#
# Region:            Si2p
# Acquisition Date:  10/31/19 00:58:55 UTC
# Analysis Method:   XPS
# Analyzer:          Phoibos
# Analyzer Lens:     MediumArea:1.5kV
# Analyzer Slit:     5:7x20\B:open
# Scan Mode:         FixedAnalyzerTransmission
# Curves/Scan:       1
# Values/Curve:      161
# Dwell Time:        0.1
# Excitation Energy: 1486.71
# Binding Energy:    108
# Pass Energy:       10
# Bias Voltage:      90
# Detector Voltage:  1900
# Eff. Workfunction: 4.395
# Source:            Focus
# Comment:
#
# Cycle: 0
# Number of Scans: 15
#
# Cycle: 0, Curve: 0
# Acquisition Date: 10/31/19 00:58:55 UTC
#
# ColumnLabels: energy counts/s
#
108  122.757
107.9  115.076
107.8  112.699
107.7  113.352
107.6  115.575
107.5  112.514
107.4  122.277
107.3  115.57
107.2  118.256
107.1  110.8798
107  126.01
106.9  125.429
106.8  120.507
106.7  121.803
106.6  128.117
106.5  136.441
106.4  128.029
106.3  132.949
106.2  151.699
106.1  167.179
106  179.258
105.9  217.426
105.8  260.81
105.7  330.02
105.6  390.343
105.5  483.584
105.4  621.197
105.3  757.803
105.2  932.661
105.1  1134.71
105  1397.43
104.9  1592.08
104.8  1830.83
104.7  2046.51
104.6  2296.39
104.5  2515.6
104.4  2604.21
104.3  2715.26
104.2  2822.4
104.1  2691.75
104  2575.5
103.9  2536.77
103.8  2219.89
103.7  2061.41
103.6  1766.84
103.5  1590.699
103.4  1396.76
103.3  1256.62
103.2  1096.13
103.1  1039.88
103  1016.39
102.9  923.2886
102.8  903.519
102.7  902.307
102.6  858.6895
102.5  804.0286
102.4  741.141
102.3  627.484
102.2  554.9169
102.1  445.4843
102  373.875
101.9  279.651
101.8  222.312
101.7  190.111
101.6  175.56
101.5  152.866
101.4  154.453
101.3  149.839
101.2  142.718
101.1  124.859
101  117.529
100.9  137.378
100.8  116.643
100.7  116.712
100.6  132.126
100.5  131.747
100.4  123.051
100.3  125.422
100.2  129.7228
100.1  125.794
100  121.3938
99.9  123.037
99.8  120.358
99.7  125.888
99.6  122.921
99.5  115.772
99.4  111.737
99.3  109.152
99.2  107.289
99.1  116.453
99  106.677
98.9  117.412
98.8  122.855
98.7  115.599
98.6  110.477
98.5  112.438
98.4  115.178
98.3  113.883
98.2  106.968
98.1  112.359
98  119.326
97.9  121.132
97.8  113.822
97.7  116.573
97.6  108.963
97.5  101.324
97.4  93.3486
97.3  110.2133
97.2  111.174
97.1  92.899
97  105.31
96.9  94.6147
96.8  103.857
96.7  108.7363
96.6  112.61
96.5  110.935
96.4  122.32
96.3  105.2718
96.2  123.669
96.1  123.237
96  110.1832
95.9  115.4519
95.8  106.925
95.7  111.265
95.6  113.698
95.5  103.146
95.4  114.757
95.3  104.231
95.2  113.105
95.1  115.54
95  115.134
94.9  107.409
94.8  103.836
94.7  112.721
94.6  110.959
94.5  108.108
94.4  101.639
94.3  101.346
94.2  107.311
94.1  116.982
94  112.727
93.9  96.1513
93.8  116.712
93.7  104.68
93.6  109.97
93.5  116.869
93.4  118.5384
93.3  110.85
93.2  110.528
93.1  111.48
93  116.086
92.9  114.884
92.8  111.249
92.7  113.667
92.6  107.162
92.5  120.869
92.4  109.507
92.3  118.626
92.2  115.577
92.1  114.922
92  115.325