File: Silicio2p/OxidoInfinito/OxidoInfinito_single 24.xy
# Created by:        SpecsLab Prodigy, Version 4.50.2-r79252
#
# XY-Serializer Export Settings:
#   Comment Prefix:           #
#   Output meta data:         yes
#   Energy Axis:              Binding Energy
#   Count Rate:               Counts per Second
#   Separate Scan Data:       no
#   Separate Channel Data:    no
#   External Channel Data:    yes
#   Transmission Function:    no
#   ErrorBar:                 no
#   Operation Results:        yes
#   Time Zone Format:         UTC
#
# Group:             Spectrum Group 55
#
# Region:            Si2p
# Acquisition Date:  10/31/19 02:07:19 UTC
# Analysis Method:   XPS
# Analyzer:          Phoibos
# Analyzer Lens:     MediumArea:1.5kV
# Analyzer Slit:     5:7x20\B:open
# Scan Mode:         FixedAnalyzerTransmission
# Curves/Scan:       1
# Values/Curve:      161
# Dwell Time:        0.1
# Excitation Energy: 1486.71
# Binding Energy:    108
# Pass Energy:       10
# Bias Voltage:      90
# Detector Voltage:  1900
# Eff. Workfunction: 4.395
# Source:            Focus
# Comment:
#
# Cycle: 0
# Number of Scans: 15
#
# Cycle: 0, Curve: 0
# Acquisition Date: 10/31/19 02:07:19 UTC
#
# ColumnLabels: energy counts/s
#
108  41.9382
107.9  43.50038
107.8  50.8523
107.7  46.2503
107.6  41.0781
107.5  41.7359
107.4  40.7234
107.3  45.7841
107.2  39.1457
107.1  46.8931
107  47.2704
106.9  49.8963
106.8  48.5662
106.7  48.5263
106.6  48.8234
106.5  44.7652
106.4  48.5362
106.3  51.8299
106.2  57.4468
106.1  59.445
106  62.5897
105.9  73.9646
105.8  72.5464
105.7  86.2805
105.6  100.098
105.5  106.818
105.4  138.166
105.3  170.276
105.2  210.43
105.1  229.0063
105  270.9508
104.9  323.777
104.8  393.234
104.7  433.663
104.6  461.295
104.5  552.156
104.4  565.771
104.3  591.066
104.2  608.67
104.1  581.9202
104  571.2546
103.9  587.637
103.8  540.9
103.7  537.348
103.6  503.459
103.5  511.9667
103.4  501.241
103.3  474.452
103.2  479.457
103.1  426.193
103  437.969
102.9  438.807
102.8  456.687
102.7  478.573
102.6  446.843
102.5  397.608
102.4  382.899
102.3  310.754
102.2  253.98
102.1  236.342
102  174.962
101.9  134.491
101.8  108.215
101.7  79.6191
101.6  64.9953
101.5  55.9802
101.4  56.3133
101.3  56.0801
101.2  48.2798
101.1  53.6198
101  50.8037
100.9  45.2246
100.8  50.0758
100.7  40.365
100.6  40.7564
100.5  49.8991
100.4  44.2031
100.3  45.7047
100.2  41.1154
100.1  53.9514
100  51.5869
99.9  48.5631
99.8  47.23431
99.7  50.1965
99.6  41.126
99.5  55.406
99.4  47.6345
99.3  45.6431
99.2  43.3175
99.1  42.5722
99  46.029
98.9  44.0617
98.8  45.584
98.7  49.1633
98.6  43.4578
98.5  40.829
98.4  37.5479
98.3  38.1035
98.2  42.1225
98.1  47.9617
98  46.23855
97.9  41.9137
97.8  43.7146
97.7  43.8187
97.6  45.3977
97.5  44.3096
97.4  38.85406
97.3  48.0442
97.2  55.7718
97.1  43.9099
97  31.8123
96.9  40.3736
96.8  44.0864
96.7  48.0248
96.6  42.2718
96.5  45.9339
96.4  38.6486
96.3  49.271
96.2  50.2788
96.1  48.1454
96  44.75678
95.9  51.9485
95.8  41.687
95.7  50.0909
95.6  50.9898
95.5  42.8906
95.4  46.0977
95.3  48.6794
95.2  48.6365
95.1  45.6906
95  45.937
94.9  46.6025
94.8  49.4376
94.7  41.22484
94.6  38.2018
94.5  37.5351
94.4  44.5792
94.3  39.42833
94.2  46.9884
94.1  51.2717
94  44.1013
93.9  51.4264
93.8  47.5917
93.7  56.0665
93.6  50.5747
93.5  40.4976
93.4  45.4036
93.3  45.7885
93.2  48.477
93.1  48.9061
93  44.077
92.9  35.8791
92.8  45.6977
92.7  50.8909
92.6  49.8091
92.5  49.0894
92.4  43.1302
92.3  37.9306
92.2  40.9262
92.1  31.4629
92  44.4896