File: Silicio2p/OxidoInfinito/OxidoInfinito.xy
# Created by:        SpecsLab Prodigy, Version 4.50.2-r79252
#
# XY-Serializer Export Settings:
#   Comment Prefix:           #
#   Output meta data:         yes
#   Energy Axis:              Binding Energy
#   Count Rate:               Counts per Second
#   Separate Scan Data:       no
#   Separate Channel Data:    no
#   External Channel Data:    yes
#   Transmission Function:    no
#   ErrorBar:                 no
#   Operation Results:        yes
#   Time Zone Format:         UTC
#
# Group:             Spectrum Group 0
#
# Region:            Survey
# Acquisition Date:  10/30/19 22:56:45 UTC
# Analysis Method:   XPS
# Analyzer:          Phoibos
# Analyzer Lens:     MediumArea:1.5kV
# Analyzer Slit:     5:7x20\B:open
# Scan Mode:         FixedAnalyzerTransmission
# Curves/Scan:       1
# Values/Curve:      1201
# Dwell Time:        0.1
# Excitation Energy: 1486.71
# Binding Energy:    1200
# Pass Energy:       50
# Bias Voltage:      90
# Detector Voltage:  1900
# Eff. Workfunction: 4.395
# Source:            Focus
# Comment:
#
# Cycle: 0
# Number of Scans: 1
#
# Cycle: 0, Curve: 0
# Acquisition Date: 10/30/19 22:56:45 UTC
#
# ColumnLabels: energy counts/s
#
1200  22541.279
1195  22816.59
1190  22520.996
1185  23021.932
1180  22943.074
1175  23028.122
1170  22720.378
1165  23353.583
1160  22927.817
1155  23704.687
1150  24053.78
1145  24607.042
1140  23639.801
1135  24159.417
1130  23875.876
1125  24190.57
1120  23756.424
1115  23983.338
1110  24013.388
1105  24754.951
1100  23987.366
1095  24752.826
1090  25658.605
1085  25042.994
1080  24831.644
1075  24869.337
1070  24873.91
1065  25085.658
1060  25253.933
1055  23656.073
1050  24517.688
1045  26548.501
1040  25450.994
1035  25213.625
1030  25439.419
1025  25304.64
1020  24854.685
1015  25102.471
1010  24482.103
1005  25206.365
1000  25522.957
995  22704.456
990  20646.263
985  22119.396
980  27939.03
975  20583.059
970  15730.541
965  14195.355
960  15099.157
955  14338.474
950  15127.655
945  15722.284
940  15260.116
935  14870.432
930  16134.442
925  16156.887
920  16234.606
915  15743.396
910  16163.857
905  16554.741
900  16377.926
895  16613.49
890  17021.89
885  17241.542
880  17771.361
875  17567.45
870  17834.002
865  18005.724
860  17644.162
855  18753.794
850  18500.637
845  18995.149
840  19203.495
835  19140.869
830  19900.71
825  19778.655
820  20054.641
815  19958.657
810  20734.08
805  20732.014
800  20960.509
795  21485.66
790  21486.694
785  21000.932
780  21915.796
775  22165.209
770  22329.291
765  22603.73
760  22728.121
755  23003.571
750  22252.323
745  23922.562
740  23990.176
735  23589.254
730  25332.591
725  24885.729
720  24544.648
715  25225.764
710  25474.097
705  25208.516
700  25402.648
695  25531.695
690  26936.812
685  26723.873
680  26813.273
675  27358.323
670  27605.314
665  27694.832
660  27125.095
655  28072.461
650  29105.021
645  28886.6
640  29264.983
635  30077.195
630  29275.882
625  29707.874
620  29556.932
615  29598.242
610  30090.312
605  30993.053
600  30532.949
595  30182.923
590  30479.22
585  31145.468
580  30320.536
575  31053.698
570  28696.742
565  29516.028
560  31501.293
555  34913.198
550  27684.395
545  20328.647
540  11370.355
535  44391.894
530  12235.435
525  10960.51
520  10417.815
515  10496.696
510  10973.053
505  10424.494
500  10904.992
495  10405.019
490  9973.15
485  10747.128
480  10006.877
475  10466.992
470  10021.474
465  10730.765
460  11086.796
455  11045.171
450  10780.12
445  11110.093
440  11176.436
435  11334.174
430  11059.613
425  11294.312
420  10921.955
415  11314.312
410  10921.775
405  11230.676
400  11602.37
395  11380.638
390  11066.682
385  11096.083
380  11825.365
375  11994.438
370  11611.299
365  11768.109
360  12102.325
355  12308.799
350  12499.155
345  11954.941
340  12814.013
335  12490.272
330  13483.789
325  13680.083
320  12813.23
315  13270.833
310  13481.604
305  14045.457
300  13142.757
295  11934.333
290  13206.92
285  45690.435
280  10617.625
275  10442.304
270  10838.647
265  10123.301
260  10389.602
255  10825.798
250  10557.127
245  10635.003
240  10754.307
235  10622.388
230  10890.31
225  11085.239
220  10889.821
215  10413.383
210  10707.24
205  11079.232
200  11551.476
195  11157.09
190  10452.438
185  10280.798
180  11991.994
175  11540.7
170  11173.06
165  8170.12
160  7382.23
155  33056.726
150  7457.99
145  6582.97
140  6284.79
135  6153.53
130  6363.83
125  7222.61
120  5831.33
115  3681.59
110  1948.68
105  25169.072
100  1980.5
95  2072.78
90  2190.07
85  1871.86
80  2218.24
75  2243.14
70  2163.33
65  1887.762
60  2047.079
55  2073.49
50  2388.76
45  2169.03
40  1728.14
35  1450.72
30  2143.95
25  4680.63
20  736.868
15  1703.81
10  1264.504
5  216.602
0  13.46557

# Region:            C1s
# Acquisition Date:  10/30/19 23:25:20 UTC
# Analysis Method:   XPS
# Analyzer:          Phoibos
# Analyzer Lens:     MediumArea:1.5kV
# Analyzer Slit:     5:7x20\B:open
# Scan Mode:         FixedAnalyzerTransmission
# Curves/Scan:       1
# Values/Curve:      151
# Dwell Time:        0.1
# Excitation Energy: 1486.71
# Binding Energy:    295
# Pass Energy:       10
# Bias Voltage:      90
# Detector Voltage:  1900
# Eff. Workfunction: 4.395
# Source:            Focus
# Comment:
#
# Cycle: 0
# Number of Scans: 15
#
# Cycle: 0, Curve: 0
# Acquisition Date: 10/30/19 23:25:20 UTC
#
# ColumnLabels: energy counts/s
#
295  793.528
294.9  759.963
294.8  789.57
294.7  769.7643
294.6  760.649
294.5  793.49
294.4  801.6796
294.3  775.931
294.2  801.685
294.1  819.635
294  820.117
293.9  808.891
293.8  834.073
293.7  797.48
293.6  795.941
293.5  818.067
293.4  770.974
293.3  797.718
293.2  792.048
293.1  781.95
293  772.751
292.9  719.023
292.8  753.157
292.7  729.627
292.6  721.372
292.5  706.577
292.4  737.67
292.3  765.4638
292.2  744.569
292.1  733.18
292  709.207
291.9  772.42
291.8  718.155
291.7  699.364
291.6  740.757
291.5  726.386
291.4  735.325
291.3  753.273
291.2  737.997
291.1  722.056
291  755.091
290.9  708.083
290.8  721.569
290.7  762.429
290.6  732.156
290.5  776.177
290.4  800.775
290.3  789.6055
290.2  773.882
290.1  825.629
290  848.425
289.9  861.69
289.8  863.19
289.7  895.019
289.6  915.998
289.5  925.096
289.4  866.938
289.3  843.884
289.2  845.279
289.1  876.661
289  899.803
288.9  860.539
288.8  858.398
288.7  880.476
288.6  857.692
288.5  855.82
288.4  834.8601
288.3  913.5429
288.2  860.327
288.1  905.123
288  919.051
287.9  959.346
287.8  1044.44
287.7  1079.08
287.6  1124.71
287.5  1162.94
287.4  1259.47
287.3  1322.33
287.2  1318.11
287.1  1329.39
287  1343.61
286.9  1382.56
286.8  1357.173
286.7  1396.14
286.6  1466.42
286.5  1504.35
286.4  1691.24
286.3  2028.19
286.2  2425.78
286.1  2840.69
286  3308.86
285.9  3837.17
285.8  4368.57
285.7  4819.11
285.6  5162.56
285.5  5427.399
285.4  5367.823
285.3  5122.74
285.2  4686.32
285.1  4134.93
285  3504.7
284.9  2897.01
284.8  2422.06
284.7  1907.709
284.6  1559.4
284.5  1269.54
284.4  1074.39
284.3  948.568
284.2  870.167
284.1  852.44
284  815.996
283.9  820.2813
283.8  753.462
283.7  771.793
283.6  745.636
283.5  767.801
283.4  760.474
283.3  737.455
283.2  748.159
283.1  768.106
283  713.337
282.9  682.416
282.8  739.148
282.7  729.407
282.6  728.267
282.5  709.035
282.4  726.557
282.3  732.041
282.2  716.09
282.1  733.928
282  749.21
281.9  738.206
281.8  733.368
281.7  714.587
281.6  738.3689
281.5  720.663
281.4  727.17
281.3  709.841
281.2  691.501
281.1  694.965
281  706.0744
280.9  701.611
280.8  668.837
280.7  702.2089
280.6  679.467
280.5  695.721
280.4  725.8
280.3  690.43
280.2  723.459
280.1  738.095
280  699.722

# Region:            O1s
# Acquisition Date:  10/30/19 23:39:34 UTC
# Analysis Method:   XPS
# Analyzer:          Phoibos
# Analyzer Lens:     MediumArea:1.5kV
# Analyzer Slit:     5:7x20\B:open
# Scan Mode:         FixedAnalyzerTransmission
# Curves/Scan:       1
# Values/Curve:      491
# Dwell Time:        0.1
# Excitation Energy: 1486.71
# Binding Energy:    570
# Pass Energy:       10
# Bias Voltage:      90
# Detector Voltage:  1900
# Eff. Workfunction: 4.395
# Source:            Focus
# Comment:
#
# Cycle: 0
# Number of Scans: 15
#
# Cycle: 0, Curve: 0
# Acquisition Date: 10/30/19 23:39:34 UTC
#
# ColumnLabels: energy counts/s
#
570  2281.43
569.8  2345.05
569.6  2268.81
569.4  2267.01
569.2  2269.68
569  2280.81
568.8  2269.88
568.6  2224.82
568.4  2229.99
568.2  2263.52
568  2215.29
567.8  2221.79
567.6  2239.41
567.4  2189.94
567.2  2138.15
567  2197.93
566.8  2189.39
566.6  2168.84
566.4  2221.81
566.2  2194.48
566  2208.57
565.8  2226.34
565.6  2225.174
565.4  2211.485
565.2  2237.7
565  2270.64
564.8  2294.36
564.6  2236.219
564.4  2253.2
564.2  2298.3
564  2299.52
563.8  2273.7
563.6  2267.64
563.4  2274.074
563.2  2287.11
563  2322.03
562.8  2384.89
562.6  2359.74
562.4  2415.24
562.2  2320.58
562  2386.38
561.8  2351.21
561.6  2418.81
561.4  2368.82
561.2  2333.82
561  2456.56
560.8  2440.35
560.6  2420.81
560.4  2427.43
560.2  2586.59
560  2494.56
559.8  2524.46
559.6  2499.04
559.4  2504.65
559.2  2573.72
559  2495.69
558.8  2530.97
558.6  2568.02
558.4  2504.46
558.2  2578.18
558  2592.06
557.8  2603.42
557.6  2583.21
557.4  2578.81
557.2  2615.98
557  2572.83
556.8  2681.82
556.6  2682.425
556.4  2781.08
556.2  2692.915
556  2762.73
555.8  2765.08
555.6  2729.556
555.4  2702.87
555.2  2777.14
555  2716.56
554.8  2663.68
554.6  2688.67
554.4  2704.251
554.2  2598.48
554  2655.8
553.8  2603.22
553.6  2570.81
553.4  2494.18
553.2  2499.23
553  2534.29
552.8  2472.36
552.6  2389.87
552.4  2440.21
552.2  2382.85
552  2381.86
551.8  2296.83
551.6  2352.78
551.4  2195.14
551.2  2233.465
551  2257.15
550.8  2241.47
550.6  2226.16
550.4  2189.56
550.2  2119.07
550  2138.49
549.8  2205.76
549.6  2154.67
549.4  2130.98
549.2  2106.324
549  2125.89
548.8  2088.55
548.6  2097.27
548.4  2068
548.2  2031.684
548  2002.87
547.8  1951.24
547.6  1913.136
547.4  1923.3
547.2  1937.27
547  1833.84
546.8  1845.38
546.6  1798.308
546.4  1703.47
546.2  1758.36
546  1708.26
545.8  1717.085
545.6  1691.85
545.4  1633.25
545.2  1629.84
545  1658.86
544.8  1559.99
544.6  1510.53
544.4  1539.61
544.2  1425.71
544  1352.1
543.8  1304.57
543.6  1296.76
543.4  1254.94
543.2  1225.79
543  1156.96
542.8  1117.103
542.6  1125.33
542.4  1078
542.2  1076.956
542  1080.34
541.8  1032.33
541.6  1013.15
541.4  1016.97
541.2  958.574
541  957.853
540.8  976.1673
540.6  940.229
540.4  983.019
540.2  870.452
540  937.128
539.8  907.019
539.6  934.0639
539.4  903.452
539.2  893.057
539  929.313
538.8  874.409
538.6  927.001
538.4  896.25
538.2  901.6844
538  939.037
537.8  953.585
537.6  899.529
537.4  922.893
537.2  914.943
537  957.53
536.8  923.802
536.6  957.062
536.4  956.064
536.2  989.927
536  980.629
535.8  1054.87
535.6  1105.6
535.4  1232.24
535.2  1447.187
535  1877.56
534.8  2500.98
534.6  3730.26
534.4  5604.07
534.2  8353.21
534  11475.058
533.8  14463.419
533.6  16167.127
533.4  16303.044
533.2  14648.879
533  12033.515
532.8  9375.35
532.6  6727.74
532.4  4618.276
532.2  3223.68
532  2356.526
531.8  1911.158
531.6  1588.03
531.4  1390.97
531.2  1204.2
531  1167.37
530.8  1093.44
530.6  1046.31
530.4  977.998
530.2  968.885
530  923.071
529.8  926.261
529.6  857.841
529.4  910.406
529.2  848.712
529  922.184
528.8  894.266
528.6  854.309
528.4  905.761
528.2  832.132
528  871.665
527.8  897.173
527.6  818.976
527.4  877.692
527.2  830.372
527  823.653
526.8  829.669
526.6  823.666
526.4  834.478
526.2  850.791
526  833.2921
525.8  860.879
525.6  797.428
525.4  832.875
525.2  799.366
525  803.364
524.8  803.18
524.6  861.437
524.4  826.782
524.2  824.609
524  820.146
523.8  852.737
523.6  824.7892
523.4  810.661
523.2  847.645
523  805.16
522.8  845.336
522.6  826.91
522.4  827.072
522.2  803.41
522  842.35
521.8  797.009
521.6  847.998
521.4  842.501
521.2  842.035
521  841.954

# Region:            Si2p
# Acquisition Date:  10/30/19 23:51:53 UTC
# Analysis Method:   XPS
# Analyzer:          Phoibos
# Analyzer Lens:     MediumArea:1.5kV
# Analyzer Slit:     5:7x20\B:open
# Scan Mode:         FixedAnalyzerTransmission
# Curves/Scan:       1
# Values/Curve:      421
# Dwell Time:        0.1
# Excitation Energy: 1486.71
# Binding Energy:    137
# Pass Energy:       10
# Bias Voltage:      90
# Detector Voltage:  1900
# Eff. Workfunction: 4.395
# Source:            Focus
# Comment:
#
# Cycle: 0
# Number of Scans: 15
#
# Cycle: 0, Curve: 0
# Acquisition Date: 10/30/19 23:51:53 UTC
#
# ColumnLabels: energy counts/s
#
137  376.605
136.8  398.035
136.6  364.832
136.4  366.161
136.2  362.647
136  371.347
135.8  394.493
135.6  386.407
135.4  389.553
135.2  368.457
135  407.345
134.8  398.489
134.6  403.872
134.4  352.69
134.2  383.956
134  349.805
133.8  379.325
133.6  382.5169
133.4  355.847
133.2  390.155
133  364.644
132.8  359.94
132.6  395.943
132.4  389.467
132.2  396.644
132  386.725
131.8  413.657
131.6  371.396
131.4  388.99
131.2  411.9125
131  409.09
130.8  395.1
130.6  403.2525
130.4  398.051
130.2  404.979
130  447.9998
129.8  434.758
129.6  415.103
129.4  414.654
129.2  411.304
129  435.208
128.8  418.475
128.6  441.963
128.4  430.555
128.2  469.201
128  478.935
127.8  485.506
127.6  480.863
127.4  475.355
127.2  503.8017
127  432.048
126.8  456.366
126.6  468.109
126.4  441.199
126.2  462.664
126  463.126
125.8  456.626
125.6  457.204
125.4  438.776
125.2  440.688
125  456.309
124.8  451.197
124.6  457.698
124.4  439.816
124.2  461.961
124  471.409
123.8  428.972
123.6  434.659
123.4  467.9403
123.2  440.943
123  435.143
122.8  426.661
122.6  419.595
122.4  441.434
122.2  421.0812
122  433.73
121.8  410.783
121.6  395.229
121.4  394.2451
121.2  399.643
121  392.598
120.8  424.192
120.6  400.667
120.4  364.262
120.2  379.649
120  358.167
119.8  347.042
119.6  403.298
119.4  387.295
119.2  383.757
119  365.996
118.8  334.228
118.6  372.271
118.4  334.464
118.2  325.723
118  333.366
117.8  305.598
117.6  308.874
117.4  333.853
117.2  308.3007
117  303.074
116.8  282.337
116.6  302.355
116.4  289.772
116.2  277.615
116  277.935
115.8  273.649
115.6  244.2379
115.4  245.072
115.2  236.59
115  247.462
114.8  221.282
114.6  229.302
114.4  213.15
114.2  220.347
114  193.8777
113.8  202.258
113.6  187.217
113.4  197.135
113.2  166.422
113  168.035
112.8  161.849
112.6  142.408
112.4  151.649
112.2  148.55
112  153.335
111.8  147.186
111.6  137.412
111.4  147.655
111.2  154.491
111  150.501
110.8  137.041
110.6  137.667
110.4  145.311
110.2  124.488
110  135.953
109.8  148.604
109.6  129.41
109.4  136.982
109.2  126.875
109  141.698
108.8  135.595
108.6  120.244
108.4  131.957
108.2  134.257
108  126.303
107.8  143.39
107.6  131.876
107.4  145.615
107.2  124.395
107  140.667
106.8  133.367
106.6  144.0017
106.4  149.406
106.2  186.869
106  179.111
105.8  255.696
105.6  421.399
105.4  620.911
105.2  959.812
105  1433.12
104.8  1968.576
104.6  2451.25
104.4  2862.35
104.2  3034.78
104  2934.9
103.8  2534.58
103.6  1937.57
103.4  1581.26
103.2  1292.55
103  1148.247
102.8  1115.01
102.6  1011.86
102.4  823.726
102.2  576.91
102  361.521
101.8  220.108
101.6  174.241
101.4  154.686
101.2  142.2381
101  125.697
100.8  128.124
100.6  138.627
100.4  147.919
100.2  142.837
100  153.404
99.8  157.815
99.6  156.205
99.4  127.903
99.2  132.496
99  136.961
98.8  121.134
98.6  133.829
98.4  127.893
98.2  122.1915
98  123.893
97.8  143.832
97.6  119.119
97.4  123.133
97.2  122.909
97  126.728
96.8  136.5324
96.6  135.095
96.4  117.768
96.2  118.135
96  116.52
95.8  108.121
95.6  126.619
95.4  113.007
95.2  133.402
95  132.512

# Group:             Ajuste altura
#
# Group:             Spectrum Group 5
#
# Region:            C1s
# Acquisition Date:  10/31/19 00:04:10 UTC
# Analysis Method:   XPS
# Analyzer:          Phoibos
# Analyzer Lens:     MediumArea:1.5kV
# Analyzer Slit:     5:7x20\B:open
# Scan Mode:         FixedAnalyzerTransmission
# Curves/Scan:       1
# Values/Curve:      151
# Dwell Time:        0.1
# Excitation Energy: 1486.71
# Binding Energy:    295
# Pass Energy:       10
# Bias Voltage:      90
# Detector Voltage:  1900
# Eff. Workfunction: 4.395
# Source:            Focus
# Comment:
#
# Cycle: 0
# Number of Scans: 15
#
# Cycle: 0, Curve: 0
# Acquisition Date: 10/31/19 00:04:10 UTC
#
# ColumnLabels: energy counts/s
#
295  780.718
294.9  755.338
294.8  765.52
294.7  785.661
294.6  771.123
294.5  776.171
294.4  797.846
294.3  794.044
294.2  810.502
294.1  823.0539
294  788.227
293.9  786.92
293.8  818.52
293.7  794.1592
293.6  804.4025
293.5  737.142
293.4  759.33
293.3  735.287
293.2  771.018
293.1  767.74
293  760.544
292.9  767.669
292.8  725.658
292.7  743.357
292.6  749.165
292.5  735.555
292.4  720.587
292.3  712.545
292.2  736.172
292.1  711.203
292  746.088
291.9  730.783
291.8  716.264
291.7  689.477
291.6  697.394
291.5  700.134
291.4  741.4304
291.3  745.551
291.2  718.27
291.1  710.365
291  729.308
290.9  721.608
290.8  747.122
290.7  727.461
290.6  743.708
290.5  758.1983
290.4  743.364
290.3  762.823
290.2  775.056
290.1  826.01
290  819.981
289.9  840.14
289.8  795.426
289.7  795.757
289.6  798.344
289.5  817.91
289.4  846.96
289.3  798.2431
289.2  854.689
289.1  849.343
289  828.426
288.9  829.966
288.8  841.375
288.7  859.301
288.6  837.23
288.5  822.998
288.4  850.891
288.3  842.755
288.2  854.419
288.1  864.75
288  880.863
287.9  931.607
[...]
293.2  242.515
293.1  215.869
293  210.853
292.9  238.182
292.8  213.7266
292.7  231.848
292.6  244.006
292.5  228.449
292.4  215.01
292.3  216.571
292.2  236.731
292.1  218.538
292  199.0353
291.9  206.108
291.8  217.832
291.7  215.35
291.6  204.033
291.5  222.346
291.4  244.703
291.3  209.512
291.2  230.31
291.1  230.2558
291  224.405
290.9  206.414
290.8  218.7379
290.7  231.371
290.6  217.803
290.5  215.169
290.4  213.208
290.3  236.384
290.2  243.292
290.1  255.661
290  253.235
289.9  252.862
289.8  267.943
289.7  259.8327
289.6  268.286
289.5  258.084
289.4  278.217
289.3  303.026
289.2  266.852
289.1  247.31
289  282.918
288.9  262.455
288.8  253.15
288.7  262.516
288.6  297.293
288.5  273.945
288.4  266.595
288.3  273.616
288.2  257.922
288.1  253.844
288  270.0507
287.9  283.456
287.8  310.539
287.7  328.035
287.6  344.157
287.5  395.96
287.4  341.762
287.3  357.469
287.2  383.7339
287.1  403.209
287  431.798
286.9  407.061
286.8  433.359
286.7  475.705
286.6  478.283
286.5  549.367
286.4  642.362
286.3  735.856
286.2  865.002
286.1  1008.96
286  1178.47
285.9  1391.77
285.8  1612.97
285.7  1765.91
285.6  1975.62
285.5  2018.72
285.4  2068.73
285.3  2103.76
285.2  2048.71
285.1  1792.29
285  1590.05
284.9  1367.73
284.8  1146.18
284.7  981.757
284.6  748.282
284.5  587.325
284.4  480.688
284.3  382.319
284.2  329.044
284.1  300.388
284  259.961
283.9  247.31
283.8  249.991
283.7  217.22
283.6  219.796
283.5  191.253
283.4  193.422
283.3  220.997
283.2  232.248
283.1  220.614
283  227.569
282.9  257.764
282.8  214.732
282.7  198.698
282.6  219.127
282.5  222.72
282.4  225.977
282.3  195.283
282.2  209.599
282.1  209.97
282  210.8
281.9  220.186
281.8  213.795
281.7  241.034
281.6  217.898
281.5  214.309
281.4  200.002
281.3  218.912
281.2  224.28
281.1  213.6768
281  207.082
280.9  186.107
280.8  182.242
280.7  199.035
280.6  201.632
280.5  192.1881
280.4  199.616
280.3  206.959
280.2  207.193
280.1  232.163
280  226.45

# Region:            O1s
# Acquisition Date:  10/31/19 02:02:15 UTC
# Analysis Method:   XPS
# Analyzer:          Phoibos
# Analyzer Lens:     MediumArea:1.5kV
# Analyzer Slit:     5:7x20\B:open
# Scan Mode:         FixedAnalyzerTransmission
# Curves/Scan:       1
# Values/Curve:      211
# Dwell Time:        0.1
# Excitation Energy: 1486.71
# Binding Energy:    542
# Pass Energy:       10
# Bias Voltage:      90
# Detector Voltage:  1900
# Eff. Workfunction: 4.395
# Source:            Focus
# Comment:
#
# Cycle: 0
# Number of Scans: 10
#
# Cycle: 0, Curve: 0
# Acquisition Date: 10/31/19 02:02:15 UTC
#
# ColumnLabels: energy counts/s
#
542  321.848
541.9  308.348
541.8  331.498
541.7  320.849
541.6  329.297
541.5  319.907
541.4  354.53
541.3  320.529
541.2  291.778
541.1  329.1259
541  326.316
540.9  285.771
540.8  281.187
540.7  293.683
540.6  285.737
540.5  310.148
540.4  306.579
540.3  280.321
540.2  312.589
540.1  321.045
540  269.772
539.9  293.001
539.8  314.967
539.7  312.998
539.6  293.962
539.5  307.517
539.4  281.576
539.3  291.463
539.2  258.139
539.1  258.316
539  314.128
538.9  284.124
538.8  309.986
538.7  311.97
538.6  288.949
538.5  276.588
538.4  291.429
538.3  276.607
538.2  317.187
538.1  319.2702
538  288.195
537.9  258.942
537.8  257.645
537.7  271.738
537.6  317.104
537.5  308.462
537.4  266.114
537.3  302.48
537.2  329.341
537.1  278.805
537  309.11
536.9  335.012
536.8  310.294
536.7  316.593
536.6  292.403
536.5  316.921
536.4  295.844
536.3  310.354
536.2  287.872
536.1  280.232
536  300.726
535.9  291.892
535.8  300.8726
535.7  280.335
535.6  297.636
535.5  340.326
535.4  345.83
535.3  348.7425
535.2  340.496
535.1  387.364
535  479.196
534.9  497.177
534.8  607.318
534.7  683.761
534.6  793.97
534.5  917.35
534.4  1175.39
534.3  1403.39
534.2  1627.04
534.1  1907.02
534  2258.86
533.9  2610.89
533.8  2885.7
533.7  3095.55
533.6  3360.211
533.5  3538.7
533.4  3678.204
533.3  3778.25
533.2  3736.17
533.1  3680.98
533  3672.54
532.9  3501.44
532.8  3069.29
532.7  2863.6
532.6  2441.97
532.5  2103.15
532.4  1836.17
532.3  1542.25
532.2  1234.12
532.1  1084.34
532  959.344
531.9  836.596
531.8  699.624
531.7  583.493
531.6  548.299
531.5  467.7164
531.4  423.514
531.3  426.435
531.2  417.651
531.1  403.5642
531  384.717
530.9  361.302
530.8  318.072
530.7  321.574
530.6  309.147
530.5  316.182
530.4  306.195
530.3  300.562
530.2  290.622
530.1  289.348
530  277.557
529.9  302.752
529.8  287.523
529.7  313.045
529.6  273.445
529.5  279.119
529.4  280.295
529.3  261.226
529.2  249.051
529.1  269.412
529  285.353
528.9  287.926
528.8  250.167
528.7  267.653
528.6  260.201
528.5  273.872
528.4  278.746
528.3  243.991
528.2  275.08
528.1  288.036
528  292.284
527.9  256.153
527.8  257.328
527.7  265.7297
527.6  264
527.5  297.255
527.4  261.15
527.3  282.544
527.2  288.302
527.1  273.86
527  270.223
526.9  253.199
526.8  238.878
526.7  279.085
526.6  260.122
526.5  252.151
526.4  246.703
526.3  270.155
526.2  261.817
526.1  247.556
526  250.862
525.9  260.678
525.8  271.4384
525.7  259.286
525.6  254.7463
525.5  246.57
525.4  251.816
525.3  245.8662
525.2  238.804
525.1  257.757
525  261.194
524.9  259.634
524.8  261.093
524.7  247.6694
524.6  244.239
524.5  275.6
524.4  260.026
524.3  245.512
524.2  262.209
524.1  254.703
524  267.555
523.9  265.76
523.8  294.235
523.7  259.379
523.6  246.61
523.5  267.44
523.4  281.278
523.3  271.7471
523.2  274.146
523.1  243.312
523  237.583
522.9  239.627
522.8  243.3242
522.7  255.439
522.6  247.826
522.5  246.017
522.4  242.189
522.3  278.438
522.2  269.785
522.1  246.874
522  231.783
521.9  260.7746
521.8  255.038
521.7  261.835
521.6  260.3996
521.5  231.923
521.4  271.997
521.3  255.43
521.2  271.157
521.1  255.6389
521  250.582

# Region:            Si2p
# Acquisition Date:  10/31/19 02:07:19 UTC
# Analysis Method:   XPS
# Analyzer:          Phoibos
# Analyzer Lens:     MediumArea:1.5kV
# Analyzer Slit:     5:7x20\B:open
# Scan Mode:         FixedAnalyzerTransmission
# Curves/Scan:       1
# Values/Curve:      161
# Dwell Time:        0.1
# Excitation Energy: 1486.71
# Binding Energy:    108
# Pass Energy:       10
# Bias Voltage:      90
# Detector Voltage:  1900
# Eff. Workfunction: 4.395
# Source:            Focus
# Comment:
#
# Cycle: 0
# Number of Scans: 15
#
# Cycle: 0, Curve: 0
# Acquisition Date: 10/31/19 02:07:19 UTC
#
# ColumnLabels: energy counts/s
#
108  41.9382
107.9  43.50038
107.8  50.8523
107.7  46.2503
107.6  41.0781
107.5  41.7359
107.4  40.7234
107.3  45.7841
107.2  39.1457
107.1  46.8931
107  47.2704
106.9  49.8963
106.8  48.5662
106.7  48.5263
106.6  48.8234
106.5  44.7652
106.4  48.5362
106.3  51.8299
106.2  57.4468
106.1  59.445
106  62.5897
105.9  73.9646
105.8  72.5464
105.7  86.2805
105.6  100.098
105.5  106.818
105.4  138.166
105.3  170.276
105.2  210.43
105.1  229.0063
105  270.9508
104.9  323.777
104.8  393.234
104.7  433.663
104.6  461.295
104.5  552.156
104.4  565.771
104.3  591.066
104.2  608.67
104.1  581.9202
104  571.2546
103.9  587.637
103.8  540.9
103.7  537.348
103.6  503.459
103.5  511.9667
103.4  501.241
103.3  474.452
103.2  479.457
103.1  426.193
103  437.969
102.9  438.807
102.8  456.687
102.7  478.573
102.6  446.843
102.5  397.608
102.4  382.899
102.3  310.754
102.2  253.98
102.1  236.342
102  174.962
101.9  134.491
101.8  108.215
101.7  79.6191
101.6  64.9953
101.5  55.9802
101.4  56.3133
101.3  56.0801
101.2  48.2798
101.1  53.6198
101  50.8037
100.9  45.2246
100.8  50.0758
100.7  40.365
100.6  40.7564
100.5  49.8991
100.4  44.2031
100.3  45.7047
100.2  41.1154
100.1  53.9514
100  51.5869
99.9  48.5631
99.8  47.23431
99.7  50.1965
99.6  41.126
99.5  55.406
99.4  47.6345
99.3  45.6431
99.2  43.3175
99.1  42.5722
99  46.029
98.9  44.0617
98.8  45.584
98.7  49.1633
98.6  43.4578
98.5  40.829
98.4  37.5479
98.3  38.1035
98.2  42.1225
98.1  47.9617
98  46.23855
97.9  41.9137
97.8  43.7146
97.7  43.8187
97.6  45.3977
97.5  44.3096
97.4  38.85406
97.3  48.0442
97.2  55.7718
97.1  43.9099
97  31.8123
96.9  40.3736
96.8  44.0864
96.7  48.0248
96.6  42.2718
96.5  45.9339
96.4  38.6486
96.3  49.271
96.2  50.2788
96.1  48.1454
96  44.75678
95.9  51.9485
95.8  41.687
95.7  50.0909
95.6  50.9898
95.5  42.8906
95.4  46.0977
95.3  48.6794
95.2  48.6365
95.1  45.6906
95  45.937
94.9  46.6025
94.8  49.4376
94.7  41.22484
94.6  38.2018
94.5  37.5351
94.4  44.5792
94.3  39.42833
94.2  46.9884
94.1  51.2717
94  44.1013
93.9  51.4264
93.8  47.5917
93.7  56.0665
93.6  50.5747
93.5  40.4976
93.4  45.4036
93.3  45.7885
93.2  48.477
93.1  48.9061
93  44.077
92.9  35.8791
92.8  45.6977
92.7  50.8909
92.6  49.8091
92.5  49.0894
92.4  43.1302
92.3  37.9306
92.2  40.9262
92.1  31.4629
92  44.4896