File: Silicio2p/OxidoInfinito/OxidoInfinito_single 18.xy
# Created by:        SpecsLab Prodigy, Version 4.50.2-r79252
#
# XY-Serializer Export Settings:
#   Comment Prefix:           #
#   Output meta data:         yes
#   Energy Axis:              Binding Energy
#   Count Rate:               Counts per Second
#   Separate Scan Data:       no
#   Separate Channel Data:    no
#   External Channel Data:    yes
#   Transmission Function:    no
#   ErrorBar:                 no
#   Operation Results:        yes
#   Time Zone Format:         UTC
#
# Group:             Spectrum Group 35
#
# Region:            Si2p
# Acquisition Date:  10/31/19 01:34:36 UTC
# Analysis Method:   XPS
# Analyzer:          Phoibos
# Analyzer Lens:     MediumArea:1.5kV
# Analyzer Slit:     5:7x20\B:open
# Scan Mode:         FixedAnalyzerTransmission
# Curves/Scan:       1
# Values/Curve:      161
# Dwell Time:        0.1
# Excitation Energy: 1486.71
# Binding Energy:    108
# Pass Energy:       10
# Bias Voltage:      90
# Detector Voltage:  1900
# Eff. Workfunction: 4.395
# Source:            Focus
# Comment:
#
# Cycle: 0
# Number of Scans: 15
#
# Cycle: 0, Curve: 0
# Acquisition Date: 10/31/19 01:34:36 UTC
#
# ColumnLabels: energy counts/s
#
108  78.3287
107.9  81.7576
107.8  82.66369
107.7  85.4094
107.6  98.1198
107.5  86.4448
107.4  79.8846
107.3  84.5085
107.2  92.7212
107.1  84.4221
107  77.1897
106.9  91.8379
106.8  88.4119
106.7  78.9602
106.6  92.3128
106.5  80.495
106.4  86.3318
106.3  93.5105
106.2  99.3165
106.1  108.717
106  125.435
105.9  130.017
105.8  150.612
105.7  180.302
105.6  242.136
105.5  292.478
105.4  359.138
105.3  441.887
105.2  545.544
105.1  667.27
105  769.75
104.9  896.813
104.8  1091.21
104.7  1176.24
104.6  1304.05
104.5  1525.13
104.4  1608.53
104.3  1595.99
104.2  1666.935
104.1  1651.176
104  1693.26
103.9  1614.17
103.8  1530.61
103.7  1391.12
103.6  1271.07
103.5  1182.49
103.4  978.325
103.3  878.663
103.2  840.972
103.1  776.915
103  693.462
102.9  692.942
102.8  686.2117
102.7  661.153
102.6  655.95
102.5  625.1729
102.4  572.259
102.3  505.847
102.2  459.31
102.1  397.272
102  302.197
101.9  239.272
101.8  211.194
101.7  171.695
101.6  137.512
101.5  111.4869
101.4  108.735
101.3  107.729
101.2  94.0584
101.1  91.9524
101  89.1561
100.9  88.565
100.8  92.9
100.7  81.2414
100.6  88.1102
100.5  79.661
100.4  81.8146
100.3  95.8691
100.2  81.9112
100.1  84.3429
100  92.8387
99.9  99.5033
99.8  94.0004
99.7  85.0128
99.6  91.6466
99.5  80.9827
99.4  79.4013
99.3  75.397
99.2  64.5932
99.1  71.3781
99  83.5645
98.9  85.2565
98.8  77.5289
98.7  82.1877
98.6  62.3391
98.5  67.6264
98.4  83.2048
98.3  87.04739
98.2  78.0506
98.1  67.099
98  68.0488
97.9  75.8501
97.8  69.20087
97.7  82.4944
97.6  87.0524
97.5  77.5569
97.4  59.2475
97.3  81.07927
97.2  81.1937
97.1  82.5217
97  77.5236
96.9  78.3754
96.8  77.1164
96.7  72.2812
96.6  59.9167
96.5  75.4018
96.4  74.5615
96.3  83.0783
96.2  80.8831
96.1  77.4048
96  82.831
95.9  75.3222
95.8  71.5795
95.7  71.4768
95.6  80.9737
95.5  72.2052
95.4  75.8302
95.3  87.44121
95.2  75.2274
95.1  77.1213
95  76.8312
94.9  77.8671
94.8  80.23
94.7  90.6041
94.6  81.5908
94.5  75.8775
94.4  77.7997
94.3  80.4543
94.2  64.4387
94.1  67.9021
94  78.5772
93.9  80.7801
93.8  86.0134
93.7  85.2011
93.6  81.6945
93.5  76.3974
93.4  82.523
93.3  81.0405
93.2  69.5762
93.1  77.8594
93  80.98612
92.9  82.9409
92.8  79.9743
92.7  75.1151
92.6  79.0289
92.5  75.7141
92.4  69.4532
92.3  80.2629
92.2  95.9787
92.1  79.5153
92  71.8625