File: Silicio2p/OxidoInfinito/OxidoInfinito_single 9.xy
# Created by:        SpecsLab Prodigy, Version 4.50.2-r79252
#
# XY-Serializer Export Settings:
#   Comment Prefix:           #
#   Output meta data:         yes
#   Energy Axis:              Binding Energy
#   Count Rate:               Counts per Second
#   Separate Scan Data:       no
#   Separate Channel Data:    no
#   External Channel Data:    yes
#   Transmission Function:    no
#   ErrorBar:                 no
#   Operation Results:        yes
#   Time Zone Format:         UTC
#
# Group:             Spectrum Group 5
#
# Region:            Si2p
# Acquisition Date:  10/31/19 00:30:44 UTC
# Analysis Method:   XPS
# Analyzer:          Phoibos
# Analyzer Lens:     MediumArea:1.5kV
# Analyzer Slit:     5:7x20\B:open
# Scan Mode:         FixedAnalyzerTransmission
# Curves/Scan:       1
# Values/Curve:      421
# Dwell Time:        0.1
# Excitation Energy: 1486.71
# Binding Energy:    137
# Pass Energy:       10
# Bias Voltage:      90
# Detector Voltage:  1900
# Eff. Workfunction: 4.395
# Source:            Focus
# Comment:
#
# Cycle: 0
# Number of Scans: 15
#
# Cycle: 0, Curve: 0
# Acquisition Date: 10/31/19 00:30:44 UTC
#
# ColumnLabels: energy counts/s
#
137  402.661
136.8  370.935
136.6  374.609
136.4  344.106
136.2  368.587
136  377.089
135.8  369.881
135.6  371.589
135.4  366.515
135.2  372.1568
135  358.709
134.8  370.121
134.6  406.2123
134.4  349.145
134.2  387.194
134  370.72
133.8  362.557
133.6  361.928
133.4  361.389
133.2  374.852
133  363.516
132.8  367.975
132.6  365.345
132.4  363.908
132.2  392.717
132  374.877
131.8  349.03
131.6  380.306
131.4  381.762
131.2  377.953
131  370.292
130.8  403.3545
130.6  372.677
130.4  407.335
130.2  402.651
130  398.637
129.8  426.304
129.6  407.646
129.4  426.412
129.2  410.458
129  421.057
128.8  442.297
128.6  445.611
128.4  416.659
128.2  422.7885
128  443.714
127.8  461.748
127.6  447.151
127.4  455.488
127.2  436.799
127  451.823
126.8  467.173
126.6  462.087
126.4  451.3904
126.2  431.404
126  433.9882
125.8  451.706
125.6  467.109
125.4  458.7335
125.2  427.322
125  457.815
124.8  430.936
124.6  422.382
124.4  449.118
124.2  433.374
124  456.955
123.8  421.71
123.6  426.743
123.4  423.848
123.2  427.7695
123  420.448
122.8  411.14
122.6  406.649
122.4  432.736
122.2  410.647
122  367.16
121.8  407.382
121.6  413.169
121.4  376.781
121.2  352.591
121  397.112
120.8  392.153
120.6  363.099
120.4  400.836
120.2  389.78
120  353.332
119.8  373.254
119.6  387.881
119.4  357.818
119.2  357.801
119  347.164
118.8  345.349
118.6  352.693
118.4  327.127
118.2  308.377
118  341.037
117.8  317.2695
117.6  288.251
117.4  309.201
117.2  275.276
117  285.362
116.8  281.076
116.6  274.31
116.4  262.006
116.2  269.599
116  245.592
115.8  279.926
115.6  246.267
115.4  252.248
115.2  244.8163
115  219.418
114.8  220.1819
114.6  216.102
114.4  187.726
114.2  200.871
114  196.668
113.8  189.494
113.6  199.541
113.4  170.265
113.2  162.658
113  157.292
112.8  154.081
112.6  135.609
112.4  144.639
112.2  136.609
112  163.8506
111.8  152.529
111.6  140.416
111.4  143.201
111.2  143.888
111  142.282
110.8  124.897
110.6  131.482
110.4  121.9935
110.2  124.932
110  133.657
109.8  124.232
109.6  116.907
109.4  139.684
109.2  130.282
109  116.883
108.8  120.39
108.6  123.397
108.4  123.874
108.2  132.055
108  123.08
107.8  124.001
107.6  138.815
107.4  140.453
107.2  129.867
107  130.842
106.8  140.534
106.6  144.541
106.4  134.335
106.2  166
106  187.638
105.8  262.362
105.6  401.338
105.4  630.061
105.2  969.984
105  1420.66
104.8  1944.29
104.6  2445.197
104.4  2774.82
104.2  3025.66
104  2964.26
103.8  2501.6
103.6  2035.36
103.4  1566.04
103.2  1257.28
103  1102.29
102.8  1044.55
102.6  958.469
102.4  777.5176
102.2  611.171
102  372.991
101.8  251.004
101.6  188.152
101.4  149.3892
101.2  139.05
101  138.801
100.8  120.546
100.6  136.446
100.4  136.884
100.2  143.398
100  132.063
99.8  143.588
99.6  131.879
99.4  122.862
99.2  131.571
99  120.295
98.8  122.526
98.6  130.908
98.4  120.158
98.2  123.868
98  132.21
97.8  119.191
97.6  124.774
97.4  118.2
97.2  134.1829
97  126.128
96.8  126.058
96.6  129.777
96.4  118.234
96.2  118.985
96  129.436
95.8  132.5165
95.6  112.101
95.4  117.446
95.2  124.553
95  128.699