File: Silicio2p/OxidoInfinito/OxidoInfinito_single 4.xy
# Created by:        SpecsLab Prodigy, Version 4.50.2-r79252
#
# XY-Serializer Export Settings:
#   Comment Prefix:           #
#   Output meta data:         yes
#   Energy Axis:              Binding Energy
#   Count Rate:               Counts per Second
#   Separate Scan Data:       no
#   Separate Channel Data:    no
#   External Channel Data:    yes
#   Transmission Function:    no
#   ErrorBar:                 no
#   Operation Results:        yes
#   Time Zone Format:         UTC
#
# Group:             Spectrum Group 0
#
# Region:            Si2p
# Acquisition Date:  10/30/19 23:51:53 UTC
# Analysis Method:   XPS
# Analyzer:          Phoibos
# Analyzer Lens:     MediumArea:1.5kV
# Analyzer Slit:     5:7x20\B:open
# Scan Mode:         FixedAnalyzerTransmission
# Curves/Scan:       1
# Values/Curve:      421
# Dwell Time:        0.1
# Excitation Energy: 1486.71
# Binding Energy:    137
# Pass Energy:       10
# Bias Voltage:      90
# Detector Voltage:  1900
# Eff. Workfunction: 4.395
# Source:            Focus
# Comment:
#
# Cycle: 0
# Number of Scans: 15
#
# Cycle: 0, Curve: 0
# Acquisition Date: 10/30/19 23:51:53 UTC
#
# ColumnLabels: energy counts/s
#
137  376.605
136.8  398.035
136.6  364.832
136.4  366.161
136.2  362.647
136  371.347
135.8  394.493
135.6  386.407
135.4  389.553
135.2  368.457
135  407.345
134.8  398.489
134.6  403.872
134.4  352.69
134.2  383.956
134  349.805
133.8  379.325
133.6  382.5169
133.4  355.847
133.2  390.155
133  364.644
132.8  359.94
132.6  395.943
132.4  389.467
132.2  396.644
132  386.725
131.8  413.657
131.6  371.396
131.4  388.99
131.2  411.9125
131  409.09
130.8  395.1
130.6  403.2525
130.4  398.051
130.2  404.979
130  447.9998
129.8  434.758
129.6  415.103
129.4  414.654
129.2  411.304
129  435.208
128.8  418.475
128.6  441.963
128.4  430.555
128.2  469.201
128  478.935
127.8  485.506
127.6  480.863
127.4  475.355
127.2  503.8017
127  432.048
126.8  456.366
126.6  468.109
126.4  441.199
126.2  462.664
126  463.126
125.8  456.626
125.6  457.204
125.4  438.776
125.2  440.688
125  456.309
124.8  451.197
124.6  457.698
124.4  439.816
124.2  461.961
124  471.409
123.8  428.972
123.6  434.659
123.4  467.9403
123.2  440.943
123  435.143
122.8  426.661
122.6  419.595
122.4  441.434
122.2  421.0812
122  433.73
121.8  410.783
121.6  395.229
121.4  394.2451
121.2  399.643
121  392.598
120.8  424.192
120.6  400.667
120.4  364.262
120.2  379.649
120  358.167
119.8  347.042
119.6  403.298
119.4  387.295
119.2  383.757
119  365.996
118.8  334.228
118.6  372.271
118.4  334.464
118.2  325.723
118  333.366
117.8  305.598
117.6  308.874
117.4  333.853
117.2  308.3007
117  303.074
116.8  282.337
116.6  302.355
116.4  289.772
116.2  277.615
116  277.935
115.8  273.649
115.6  244.2379
115.4  245.072
115.2  236.59
115  247.462
114.8  221.282
114.6  229.302
114.4  213.15
114.2  220.347
114  193.8777
113.8  202.258
113.6  187.217
113.4  197.135
113.2  166.422
113  168.035
112.8  161.849
112.6  142.408
112.4  151.649
112.2  148.55
112  153.335
111.8  147.186
111.6  137.412
111.4  147.655
111.2  154.491
111  150.501
110.8  137.041
110.6  137.667
110.4  145.311
110.2  124.488
110  135.953
109.8  148.604
109.6  129.41
109.4  136.982
109.2  126.875
109  141.698
108.8  135.595
108.6  120.244
108.4  131.957
108.2  134.257
108  126.303
107.8  143.39
107.6  131.876
107.4  145.615
107.2  124.395
107  140.667
106.8  133.367
106.6  144.0017
106.4  149.406
106.2  186.869
106  179.111
105.8  255.696
105.6  421.399
105.4  620.911
105.2  959.812
105  1433.12
104.8  1968.576
104.6  2451.25
104.4  2862.35
104.2  3034.78
104  2934.9
103.8  2534.58
103.6  1937.57
103.4  1581.26
103.2  1292.55
103  1148.247
102.8  1115.01
102.6  1011.86
102.4  823.726
102.2  576.91
102  361.521
101.8  220.108
101.6  174.241
101.4  154.686
101.2  142.2381
101  125.697
100.8  128.124
100.6  138.627
100.4  147.919
100.2  142.837
100  153.404
99.8  157.815
99.6  156.205
99.4  127.903
99.2  132.496
99  136.961
98.8  121.134
98.6  133.829
98.4  127.893
98.2  122.1915
98  123.893
97.8  143.832
97.6  119.119
97.4  123.133
97.2  122.909
97  126.728
96.8  136.5324
96.6  135.095
96.4  117.768
96.2  118.135
96  116.52
95.8  108.121
95.6  126.619
95.4  113.007
95.2  133.402
95  132.512